SpectraSuite Data File
++++++++++++++++++++++++++++++++++++
Date: Thu Sep 19 03:19:44 EST 2019
User: sgrac
Dark Spectrum Present: Yes
Reference Spectrum Present: Yes
Number of Sampled Component Spectra: 1
Spectrometers: USB4E01596
Integration Time (usec): 100000 (USB4E01596)
Spectra Averaged: 1 (USB4E01596)
Boxcar Smoothing: 0 (USB4E01596)
Correct for Electrical Dark: No (USB4E01596)
Strobe/Lamp Enabled: Yes (USB4E01596)
Correct for Detector Non-linearity: No (USB4E01596)
Correct for Stray Light: No (USB4E01596)
Number of Pixels in Processed Spectrum: 3648
>>>>>Begin Processed Spectral Data<<<<<
178.44	850.000
178.66	850.000
178.87	850.000
179.09	-845.455
179.30	203.571
179.52	1957.143
179.74	-700.000
179.95	604.762
180.17	1300.000
180.38	280.597
180.60	0.000
180.82	574.194
181.03	255.556
181.25	3400.000
181.46	1015.385
181.68	-300.000
181.89	1207.143
182.11	629.167
182.33	629.630
182.54	1250.000
182.76	816.667
182.97	-557.143
183.19	295.238
183.40	252.727
183.62	466.667
183.84	1912.500
184.05	1226.667
184.27	-6750.000
184.48	226.984
184.70	6100.000
184.91	711.538
185.13	291.549
185.34	-194.231
185.56	514.815
185.78	480.769
185.99	-4550.000
186.21	-1309.091
186.42	-360.000
186.64	1053.333
186.85	-6750.000
187.07	663.636
187.28	1100.000
187.50	468.182
187.72	386.111
187.93	1033.333
188.15	805.263
188.36	976.471
188.58	297.436
188.79	2050.000
189.01	687.500
189.22	3360.000
189.44	735.000
189.65	-5466.667
189.87	2950.000
190.09	1111.765
190.30	2014.286
190.52	908.333
190.73	-715.385
190.95	361.364
191.16	487.500
191.38	375.000
191.59	-1336.364
191.81	686.364
192.02	766.667
192.24	684.615
192.45	2112.500
192.67	2616.667
192.88	-433.333
193.10	-17200.000
193.31	520.000
193.53	-761.905
193.74	-3075.000
193.96	2355.556
194.18	943.750
194.39	439.024
194.61	763.158
194.82	1745.455
195.04	632.000
195.25	3800.000
195.47	363.158
195.68	782.353
195.90	425.581
196.11	557.692
196.33	-1922.222
196.54	-947.368
196.76	704.545
196.97	1922.222
197.19	-13800.000
197.40	1383.333
197.62	2783.333
197.83	1200.000
198.05	739.286
198.26	442.500
198.48	441.176
198.69	-1888.889
198.91	805.556
199.12	474.286
199.34	-1814.286
199.55	270.175
199.77	310.870
199.98	-1600.000
200.20	875.000
200.41	7900.000
200.63	450.000
200.84	619.048
201.06	-1007.692
201.27	-2740.000
201.49	1516.667
201.70	850.000
201.91	-9450.000
202.13	1005.263
202.34	430.435
202.56	6150.000
202.77	906.250
202.99	402.000
203.20	460.606
203.42	-2357.143
203.63	2683.333
203.85	536.111
204.06	452.174
204.28	1800.000
204.49	-1250.000
204.71	470.732
204.92	360.000
205.14	337.778
205.35	238.571
205.56	2200.000
205.78	981.818
205.99	-1120.000
206.21	691.304
206.42	255.932
206.64	-3283.333
206.85	709.524
207.07	900.000
207.28	-2660.000
207.50	327.778
207.71	850.000
207.93	387.500
208.14	603.704
208.35	588.235
208.57	-396.000
208.78	-339.024
209.00	351.163
209.21	411.905
209.43	548.000
209.64	7600.000
209.86	542.857
210.07	524.138
210.28	-1146.154
210.50	864.706
210.71	730.000
210.93	590.625
211.14	288.571
211.36	313.043
211.57	620.000
211.78	456.410
212.00	960.000
212.21	988.235
212.43	953.333
212.64	530.000
212.86	221.795
213.07	510.345
213.29	440.000
213.50	512.903
213.71	516.667
213.93	2714.286
214.14	929.412
214.36	2112.500
214.57	218.310
214.78	1000.000
215.00	789.474
215.21	833.333
215.43	220.253
215.64	577.778
215.86	1000.000
216.07	773.684
216.28	355.556
216.50	6650.000
216.71	-12800.000
216.93	648.148
217.14	292.424
217.35	422.857
217.57	2775.000
217.78	331.429
218.00	3866.667
218.21	658.333
218.42	243.750
218.64	-8550.000
218.85	474.510
219.07	1828.571
219.28	232.787
219.49	-908.333
219.71	1450.000
219.92	283.784
220.14	1812.500
220.35	300.000
220.56	953.846
220.78	352.632
220.99	474.286
221.21	135.052
221.42	569.565
221.63	9250.000
221.85	616.667
222.06	505.000
222.28	256.000
222.49	-1488.889
222.70	283.333
222.92	-7400.000
223.13	415.789
223.34	192.391
223.56	1508.333
223.77	204.412
223.99	382.222
224.20	226.667
224.41	233.333
224.63	7100.000
224.84	4466.667
225.05	830.769
225.27	425.641
225.48	356.667
225.69	181.176
225.91	257.813
226.12	228.986
226.34	434.375
226.55	185.294
226.76	327.451
226.98	187.500
227.19	167.949
227.40	328.000
227.62	215.068
227.83	155.357
228.04	157.143
228.26	118.750
228.47	164.167
228.69	63.235
228.90	76.190
229.11	58.952
229.33	75.120
229.54	51.452
229.75	49.823
229.97	66.159
230.18	43.189
230.39	49.242
230.61	54.608
230.82	46.179
231.03	40.446
231.25	45.302
231.46	39.881
231.67	59.623
231.89	55.159
232.10	73.208
232.31	75.446
232.53	71.101
232.74	48.165
232.95	75.490
233.17	72.821
233.38	67.895
233.59	105.056
233.81	90.123
234.02	104.000
234.23	56.701
234.45	85.909
234.66	62.644
234.87	77.326
235.09	71.809
235.30	79.126
235.51	57.399
235.73	68.687
235.94	53.571
236.15	57.090
236.36	76.000
236.58	73.206
236.79	64.224
237.00	57.028
237.22	79.894
237.43	64.591
237.64	86.335
237.86	64.623
238.07	78.571
238.28	65.748
238.50	72.727
238.71	70.466
238.92	54.245
239.13	69.892
239.35	64.315
239.56	63.333
239.77	73.224
239.99	52.016
240.20	84.825
240.41	69.291
240.63	51.642
240.84	49.558
241.05	51.351
241.26	42.297
241.48	47.095
241.69	35.230
241.90	31.264
242.12	26.789
242.33	31.061
242.54	24.706
242.75	19.529
242.97	27.054
243.18	12.299
243.39	15.535
243.61	25.624
243.82	23.764
244.03	18.716
244.24	17.433
244.46	23.025
244.67	22.455
244.88	25.619
245.09	20.462
245.31	28.033
245.52	25.350
245.73	31.023
245.95	47.024
246.16	27.679
246.37	32.492
246.58	21.077
246.80	25.881
247.01	19.829
247.22	14.665
247.43	21.063
247.65	14.184
247.86	14.319
248.07	10.432
248.28	12.695
248.50	11.702
248.71	9.753
248.92	9.417
249.13	10.861
249.35	8.404
249.56	10.068
249.77	11.649
249.98	13.990
250.20	15.577
250.41	24.169
250.62	25.312
250.83	15.858
251.05	23.555
251.26	30.836
251.47	27.907
251.68	27.226
251.90	23.153
252.11	23.960
252.32	21.972
252.53	28.446
252.75	26.996
252.96	22.802
253.17	20.526
253.38	20.828
253.59	18.765
253.81	19.641
254.02	20.322
254.23	16.599
254.44	21.000
254.66	19.935
254.87	24.915
255.08	18.472
255.29	34.351
255.50	22.607
255.72	28.627
255.93	43.274
256.14	38.793
256.35	28.306
256.57	27.027
256.78	29.605
256.99	38.246
257.20	39.457
257.41	26.392
257.63	35.526
257.84	30.930
258.05	26.820
258.26	28.939
258.47	33.826
258.69	22.795
258.90	16.932
259.11	13.566
259.32	17.912
259.53	19.467
259.75	11.781
259.96	12.138
260.17	9.159
260.38	10.896
260.59	11.522
260.81	7.506
261.02	9.164
261.23	9.558
261.44	10.127
261.65	7.451
261.87	9.588
262.08	10.163
262.29	11.622
262.50	9.792
262.71	8.908
262.92	13.525
263.14	14.911
263.35	13.930
263.56	17.579
263.77	17.415
263.98	16.796
264.20	23.183
264.41	16.625
264.62	19.627
264.83	19.291
265.04	25.597
265.25	22.136
265.47	20.188
265.68	25.523
265.89	19.195
266.10	17.083
266.31	21.961
266.52	19.834
266.74	15.700
266.95	13.469
267.16	12.835
267.37	20.761
267.58	13.576
267.79	14.937
268.01	18.668
268.22	13.494
268.43	14.193
268.64	15.868
268.85	11.639
269.06	15.927
269.27	17.636
269.49	19.340
269.70	14.660
269.91	14.364
270.12	12.995
270.33	18.533
270.54	15.988
270.75	13.089
270.97	16.275
271.18	10.924
271.39	12.961
271.60	13.924
271.81	10.221
272.02	11.022
272.23	13.181
272.45	10.752
272.66	10.545
272.87	11.610
273.08	11.641
273.29	11.312
273.50	11.321
273.71	9.281
273.92	8.232
274.14	10.340
274.35	11.549
274.56	13.268
274.77	11.480
274.98	12.910
275.19	10.706
275.40	13.718
275.61	11.812
275.83	13.793
276.04	11.945
276.25	15.950
276.46	10.721
276.67	15.830
276.88	15.114
277.09	16.298
277.30	16.173
277.51	15.365
277.73	15.128
277.94	11.854
278.15	13.763
278.36	14.153
278.57	14.235
278.78	14.066
278.99	12.489
279.20	10.073
279.41	14.616
279.62	13.860
279.84	13.747
280.05	18.529
280.26	12.500
280.47	15.558
280.68	14.261
280.89	13.579
281.10	11.716
281.31	11.717
281.52	11.850
281.73	9.324
281.94	10.163
282.16	12.521
282.37	11.069
282.58	11.449
282.79	12.412
283.00	9.729
283.21	8.621
283.42	8.363
283.63	11.297
283.84	9.416
284.05	11.653
284.26	12.182
284.47	10.972
284.68	8.722
284.89	8.876
285.11	12.185
285.32	7.557
285.53	11.776
285.74	13.791
285.95	13.124
286.16	9.334
286.37	8.634
286.58	10.312
286.79	10.596
287.00	9.183
287.21	8.178
287.42	9.436
287.63	9.344
287.84	10.163
288.05	8.542
288.26	10.005
288.48	10.071
288.69	6.611
288.90	9.580
289.11	12.057
289.32	13.255
289.53	8.150
289.74	9.053
289.95	11.717
290.16	13.225
290.37	7.434
290.58	7.630
290.79	8.839
291.00	9.718
291.21	10.341
291.42	8.583
291.63	9.881
291.84	10.718
292.05	9.296
292.26	6.632
292.47	10.768
292.68	8.834
292.89	8.521
293.10	10.046
293.31	9.447
293.52	10.332
293.73	8.279
293.94	13.495
294.15	13.976
294.36	8.008
294.57	12.508
294.79	9.377
295.00	10.032
295.21	9.897
295.42	12.484
295.63	12.433
295.84	9.231
296.05	8.162
296.26	8.077
296.47	8.224
296.68	10.193
296.89	10.000
297.10	7.555
297.31	10.655
297.52	6.987
297.73	7.786
297.94	6.670
298.15	7.303
298.36	8.609
298.57	7.260
298.78	8.798
298.99	6.714
299.20	6.849
299.41	8.183
299.62	8.055
299.83	8.079
300.04	9.583
300.25	10.025
300.46	8.298
300.67	10.762
300.88	10.781
301.09	10.096
301.30	9.000
301.50	10.791
301.71	12.925
301.92	11.216
302.13	9.284
302.34	8.897
302.55	10.041
302.76	12.154
302.97	8.122
303.18	11.365
303.39	8.769
303.60	9.193
303.81	11.727
304.02	10.178
304.23	10.279
304.44	11.423
304.65	10.946
304.86	9.096
305.07	12.341
305.28	10.407
305.49	10.743
305.70	12.679
305.91	9.396
306.12	9.615
306.33	10.944
306.54	9.335
306.75	10.376
306.96	14.348
307.17	9.940
307.38	10.171
307.58	9.068
307.79	11.959
308.00	12.523
308.21	12.508
308.42	10.819
308.63	13.119
308.84	9.351
309.05	11.872
309.26	9.865
309.47	8.637
309.68	8.576
309.89	9.647
310.10	10.207
310.31	8.589
310.52	7.447
310.73	11.380
310.94	6.811
311.14	8.534
311.35	8.746
311.56	8.204
311.77	7.055
311.98	7.385
312.19	6.495
312.40	10.163
312.61	8.122
312.82	9.848
313.03	9.408
313.24	9.664
313.45	10.619
313.66	10.204
313.86	12.002
314.07	9.578
314.28	12.669
314.49	9.650
314.70	10.407
314.91	13.724
315.12	9.674
315.33	11.234
315.54	10.087
315.75	10.028
315.96	11.574
316.16	9.240
316.37	8.981
316.58	10.114
316.79	10.012
317.00	11.682
317.21	9.747
317.42	14.036
317.63	11.668
317.84	11.582
318.05	10.926
318.25	11.527
318.46	12.038
318.67	8.856
318.88	10.984
319.09	12.142
319.30	9.784
319.51	9.390
319.72	10.195
319.93	12.225
320.13	13.036
320.34	13.956
320.55	12.790
320.76	10.892
320.97	10.044
321.18	13.101
321.39	12.224
321.60	10.970
321.80	11.827
322.01	9.319
322.22	12.811
322.43	10.833
322.64	8.837
322.85	10.319
323.06	11.942
323.27	11.795
323.47	13.520
323.68	11.861
323.89	10.549
324.10	13.337
324.31	9.494
324.52	10.712
324.73	9.836
324.93	10.657
325.14	9.690
325.35	8.914
325.56	8.801
325.77	10.840
325.98	11.558
326.19	10.632
326.39	8.949
326.60	10.574
326.81	10.363
327.02	9.863
327.23	6.910
327.44	11.218
327.64	8.591
327.85	7.383
328.06	11.400
328.27	13.751
328.48	11.105
328.69	11.462
328.90	11.555
329.10	10.044
329.31	11.129
329.52	9.988
329.73	13.644
329.94	11.312
330.15	11.720
330.35	9.352
330.56	11.611
330.77	9.708
330.98	11.949
331.19	8.902
331.39	11.458
331.60	11.328
331.81	7.952
332.02	13.741
332.23	12.953
332.44	9.193
332.64	12.882
332.85	9.327
333.06	11.165
333.27	8.950
333.48	10.204
333.68	8.087
333.89	10.337
334.10	11.332
334.31	11.703
334.52	8.427
334.72	7.927
334.93	8.514
335.14	10.041
335.35	9.676
335.56	10.989
335.76	8.189
335.97	10.805
336.18	8.767
336.39	12.637
336.60	11.875
336.80	8.528
337.01	9.276
337.22	6.349
337.43	10.920
337.64	10.054
337.84	10.386
338.05	9.542
338.26	13.978
338.47	11.955
338.68	7.347
338.88	10.127
339.09	12.439
339.30	9.305
339.51	9.199
339.71	11.185
339.92	9.726
340.13	8.980
340.34	10.649
340.55	6.932
340.75	8.936
340.96	5.192
341.17	10.434
341.38	10.218
341.58	9.400
341.79	9.190
342.00	9.583
342.21	10.636
342.41	5.964
342.62	9.791
342.83	10.862
343.04	6.829
343.24	8.846
343.45	10.569
343.66	9.254
343.87	8.828
344.07	9.486
344.28	8.666
344.49	9.159
344.70	10.354
344.90	8.929
345.11	6.891
345.32	7.076
345.53	9.437
345.73	11.111
345.94	8.835
346.15	10.020
346.36	6.091
346.56	9.266
346.77	9.877
346.98	9.217
347.19	8.278
347.39	7.751
347.60	7.380
347.81	8.594
348.02	7.787
348.22	8.382
348.43	7.817
348.64	9.368
348.84	7.316
349.05	8.620
349.26	8.614
349.47	7.089
349.67	8.583
349.88	9.337
350.09	9.409
350.30	10.796
350.50	9.099
350.71	10.351
350.92	8.827
351.12	6.367
351.33	9.336
351.54	8.886
351.74	7.201
351.95	9.099
352.16	9.820
352.37	11.187
352.57	9.656
352.78	9.135
352.99	9.437
353.19	9.062
353.40	7.809
353.61	9.699
353.82	7.025
354.02	8.279
354.23	7.263
354.44	9.428
354.64	6.819
354.85	7.894
355.06	7.457
355.26	5.890
355.47	6.794
355.68	10.402
355.88	9.710
356.09	9.278
356.30	6.469
356.51	8.287
356.71	7.041
356.92	7.011
357.13	7.776
357.33	9.276
357.54	7.615
357.75	6.900
357.95	7.070
358.16	6.923
358.37	8.702
358.57	6.071
358.78	8.861
358.99	8.416
359.19	6.582
359.40	7.821
359.61	6.482
359.81	8.431
360.02	9.636
360.23	8.026
360.43	6.265
360.64	6.392
360.85	6.197
361.05	4.910
361.26	8.734
361.47	6.845
361.67	6.618
361.88	4.198
362.09	5.758
362.29	4.723
362.50	5.823
362.70	3.778
362.91	5.836
363.12	5.733
363.32	5.323
363.53	5.795
363.74	5.840
363.94	4.855
364.15	8.131
364.36	6.327
364.56	6.266
364.77	6.687
364.98	7.972
365.18	8.158
365.39	8.193
365.59	5.846
365.80	7.262
366.01	6.820
366.21	5.214
366.42	6.195
366.63	7.685
366.83	5.482
367.04	5.484
367.24	9.771
367.45	6.359
367.66	7.044
367.86	5.516
368.07	7.403
368.28	6.738
368.48	5.364
368.69	5.940
368.89	7.132
369.10	6.435
369.31	7.018
369.51	6.491
369.72	8.016
369.92	8.111
370.13	5.581
370.34	6.951
370.54	5.383
370.75	6.302
370.95	4.775
371.16	6.952
371.37	6.973
371.57	5.586
371.78	5.653
371.98	7.049
372.19	6.895
372.40	7.266
372.60	6.602
372.81	6.736
373.01	5.031
373.22	5.600
373.43	6.021
373.63	6.750
373.84	7.562
374.04	6.713
374.25	6.567
374.46	7.046
374.66	7.226
374.87	6.497
375.07	4.911
375.28	4.050
375.48	6.906
375.69	5.384
375.90	4.189
376.10	5.625
376.31	5.431
376.51	5.432
376.72	4.586
376.92	5.141
377.13	5.981
377.34	6.412
377.54	5.826
377.75	6.044
377.95	5.664
378.16	7.083
378.36	6.113
378.57	4.466
378.77	5.508
378.98	5.687
379.19	4.550
379.39	5.698
379.60	6.508
379.80	4.855
380.01	6.117
380.21	5.074
380.42	5.685
380.62	3.987
380.83	5.255
381.04	5.310
381.24	6.252
381.45	5.909
381.65	3.853
381.86	5.309
382.06	6.903
382.27	4.535
382.47	4.299
382.68	5.925
382.88	4.507
383.09	4.611
383.29	5.412
383.50	5.746
383.71	8.079
383.91	3.525
384.12	4.203
384.32	6.487
384.53	5.171
384.73	4.742
384.94	5.461
385.14	5.115
385.35	3.969
385.55	5.736
385.76	4.581
385.96	5.492
386.17	5.252
386.37	5.140
386.58	4.748
386.78	5.366
386.99	4.696
387.19	6.461
387.40	4.979
387.60	5.572
387.81	4.332
388.01	4.706
388.22	4.350
388.42	4.744
388.63	5.378
388.83	5.860
389.04	4.295
389.24	4.608
389.45	3.334
389.65	4.373
389.86	5.624
390.06	3.877
390.27	3.719
390.47	4.794
390.68	4.826
390.88	4.891
391.09	4.731
391.29	4.723
391.50	4.583
391.70	4.532
391.91	3.915
392.11	4.222
392.32	4.732
392.52	4.760
392.73	4.819
392.93	3.996
393.14	4.885
393.34	4.455
393.55	4.554
393.75	3.719
393.95	4.294
394.16	4.405
394.36	4.011
394.57	4.810
394.77	4.301
394.98	3.399
395.18	3.862
395.39	4.444
395.59	4.301
395.80	3.937
396.00	4.205
396.21	5.757
396.41	3.708
396.61	5.232
396.82	4.517
397.02	5.494
397.23	4.513
397.43	4.361
397.64	4.862
397.84	5.532
398.05	3.405
398.25	5.021
398.45	4.214
398.66	4.485
398.86	4.638
399.07	5.407
399.27	4.109
399.48	4.784
399.68	3.532
399.89	3.552
400.09	4.505
400.29	3.752
400.50	4.406
400.70	5.528
400.91	3.941
401.11	3.713
401.32	5.404
401.52	3.712
401.72	4.536
401.93	4.608
402.13	4.658
402.34	4.346
402.54	2.977
402.75	5.868
402.95	5.355
403.15	5.737
403.36	4.933
403.56	4.695
403.77	4.732
403.97	4.485
404.17	3.744
404.38	3.820
404.58	4.098
404.79	4.685
404.99	3.707
405.19	3.242
405.40	4.172
405.60	3.668
405.81	4.449
406.01	4.343
406.21	4.939
406.42	3.430
406.62	4.808
406.83	4.327
407.03	4.658
407.23	3.595
407.44	3.657
407.64	3.383
407.85	4.268
408.05	4.001
408.25	3.519
408.46	4.844
408.66	4.177
408.87	2.551
409.07	4.294
409.27	3.154
409.48	4.156
409.68	4.437
409.88	3.865
410.09	3.866
410.29	5.049
410.50	4.211
410.70	3.989
410.90	4.132
411.11	3.869
411.31	4.145
411.51	4.167
411.72	4.809
411.92	3.823
412.12	3.605
412.33	3.216
412.53	3.715
412.74	3.414
412.94	3.929
413.14	3.767
413.35	3.674
413.55	4.216
413.75	3.140
413.96	3.333
414.16	3.685
414.36	4.395
414.57	4.551
414.77	3.384
414.97	4.614
415.18	3.409
415.38	4.097
415.58	3.656
415.79	4.087
415.99	4.303
416.19	3.897
416.40	3.879
416.60	3.293
416.80	3.489
417.01	3.580
417.21	2.857
417.41	4.270
417.62	3.257
417.82	3.136
418.02	2.868
418.23	3.128
418.43	2.827
418.63	3.637
418.84	3.767
419.04	2.903
419.24	4.162
419.45	2.992
419.65	3.247
419.85	3.008
420.06	3.282
420.26	2.706
420.46	2.822
420.67	3.065
420.87	2.907
421.07	3.312
421.28	2.509
421.48	3.094
421.68	3.201
421.88	3.280
422.09	3.032
422.29	2.712
422.49	2.656
422.70	2.329
422.90	2.981
423.10	3.075
423.31	2.569
423.51	3.222
423.71	2.752
423.91	3.227
424.12	3.716
424.32	3.033
424.52	3.261
424.73	2.671
424.93	2.848
425.13	2.405
425.33	2.357
425.54	2.963
425.74	2.333
425.94	3.511
426.15	2.839
426.35	2.761
426.55	2.970
426.75	3.191
426.96	3.025
427.16	2.904
427.36	2.832
427.57	3.271
427.77	2.986
427.97	2.716
428.17	3.389
428.38	3.864
428.58	2.513
428.78	3.792
428.98	3.035
429.19	2.837
429.39	2.629
429.59	3.392
429.79	3.143
430.00	3.069
430.20	2.865
430.40	2.838
430.60	2.792
430.81	2.998
431.01	2.651
431.21	2.760
431.41	2.247
431.62	2.901
431.82	3.135
432.02	4.018
432.22	3.028
432.43	2.475
432.63	2.123
432.83	2.972
433.03	2.449
433.24	2.782
433.44	2.532
433.64	3.319
433.84	2.581
434.05	2.880
434.25	2.333
434.45	3.203
434.65	3.122
434.85	3.798
435.06	3.020
435.26	3.215
435.46	2.623
435.66	2.773
435.87	2.643
436.07	2.941
436.27	3.099
436.47	2.254
436.67	3.019
436.88	2.690
437.08	3.179
437.28	2.879
437.48	2.722
437.69	2.673
437.89	3.191
438.09	3.386
438.29	2.405
438.49	3.534
438.70	3.397
438.90	2.392
439.10	2.459
439.30	2.661
439.50	2.878
439.71	2.314
439.91	2.676
440.11	3.156
440.31	2.821
440.51	2.209
440.72	2.641
440.92	2.124
441.12	2.742
441.32	3.165
441.52	3.349
441.72	2.873
441.93	2.753
442.13	3.310
442.33	2.535
442.53	3.597
442.73	2.530
442.94	2.474
443.14	2.452
443.34	4.288
443.54	2.933
443.74	3.541
443.94	2.404
444.15	2.403
444.35	2.421
444.55	3.236
444.75	2.706
444.95	2.892
445.15	3.291
445.36	2.877
445.56	2.155
445.76	3.094
445.96	2.408
446.16	2.290
446.36	2.310
446.57	3.128
446.77	2.084
446.97	2.671
447.17	2.963
447.37	2.489
447.57	3.020
447.77	2.536
447.98	2.711
448.18	3.563
448.38	2.160
448.58	2.692
448.78	2.763
448.98	2.653
449.18	2.102
449.39	2.949
449.59	2.590
449.79	2.275
449.99	2.449
450.19	2.557
450.39	2.684
450.59	2.367
450.79	2.292
451.00	2.801
451.20	3.692
451.40	2.808
451.60	3.167
451.80	3.549
452.00	2.499
452.20	2.735
452.40	2.853
452.61	2.323
452.81	2.406
453.01	2.472
453.21	2.455
453.41	2.651
453.61	2.465
453.81	2.107
454.01	2.713
454.21	3.038
454.42	3.261
454.62	2.814
454.82	1.905
455.02	2.396
455.22	1.909
455.42	2.910
455.62	2.194
455.82	2.273
456.02	3.000
456.23	2.878
456.43	3.232
456.63	2.548
456.83	1.490
457.03	2.296
457.23	3.295
457.43	2.971
457.63	2.627
457.83	3.091
458.03	3.111
458.23	2.603
458.43	2.489
458.64	2.404
458.84	2.679
459.04	3.159
459.24	2.315
459.44	3.000
459.64	2.754
459.84	2.623
460.04	2.075
460.24	2.463
460.44	2.612
460.64	2.601
460.84	2.258
461.04	3.191
461.24	2.937
461.45	2.900
461.65	3.116
461.85	2.664
462.05	2.755
462.25	2.891
462.45	3.101
462.65	2.838
462.85	2.141
463.05	2.543
463.25	2.338
463.45	2.932
463.65	2.997
463.85	2.854
464.05	2.937
464.25	2.533
464.45	3.204
464.65	2.911
464.85	2.563
465.05	2.391
465.26	2.684
465.46	2.827
465.66	3.489
465.86	2.890
466.06	2.914
466.26	3.190
466.46	2.251
466.66	2.638
466.86	2.721
467.06	3.037
467.26	2.608
467.46	3.752
467.66	3.230
467.86	2.758
468.06	2.519
468.26	2.065
468.46	2.548
468.66	2.741
468.86	2.273
469.06	2.899
469.26	2.700
469.46	2.835
469.66	2.483
469.86	3.051
470.06	2.225
470.26	3.321
470.46	2.686
470.66	2.886
470.86	2.781
471.06	2.802
471.26	2.275
471.46	2.119
471.66	2.935
471.86	2.664
472.06	2.628
472.26	3.599
472.46	3.177
472.66	2.562
472.86	2.545
473.06	3.357
