SpectraSuite Data File
++++++++++++++++++++++++++++++++++++
Date: Thu Sep 19 03:56:35 EST 2019
User: sgrac
Dark Spectrum Present: Yes
Reference Spectrum Present: Yes
Number of Sampled Component Spectra: 1
Spectrometers: USB4E01596
Integration Time (usec): 100000 (USB4E01596)
Spectra Averaged: 1 (USB4E01596)
Boxcar Smoothing: 0 (USB4E01596)
Correct for Electrical Dark: No (USB4E01596)
Strobe/Lamp Enabled: Yes (USB4E01596)
Correct for Detector Non-linearity: No (USB4E01596)
Correct for Stray Light: No (USB4E01596)
Number of Pixels in Processed Spectrum: 3648
>>>>>Begin Processed Spectral Data<<<<<
178.44	850.000
178.66	850.000
178.87	850.000
179.09	-827.273
179.30	210.714
179.52	1942.857
179.74	-788.889
179.95	771.429
180.17	1609.091
180.38	340.299
180.60	0.000
180.82	774.194
181.03	372.222
181.25	3350.000
181.46	1284.615
181.68	-311.628
181.89	1535.714
182.11	733.333
182.33	748.148
182.54	1558.333
182.76	800.000
182.97	-750.000
183.19	414.286
183.40	343.636
183.62	666.667
183.84	1912.500
184.05	1220.000
184.27	-7900.000
184.48	253.968
184.70	6950.000
184.91	830.769
185.13	287.324
185.34	-251.923
185.56	670.370
185.78	565.385
185.99	-4475.000
186.21	-1372.727
186.42	-307.500
186.64	920.000
186.85	-8800.000
187.07	709.091
187.28	1107.143
187.50	745.455
187.72	436.111
187.93	1050.000
188.15	1047.368
188.36	1152.941
188.58	484.615
188.79	2266.667
189.01	950.000
189.22	4020.000
189.44	715.000
189.65	-7966.667
189.87	3950.000
190.09	976.471
190.30	2614.286
190.52	1533.333
190.73	-600.000
190.95	293.182
191.16	537.500
191.38	411.111
191.59	-1472.727
191.81	881.818
192.02	993.333
192.24	742.308
192.45	2275.000
192.67	2483.333
192.88	-507.407
193.10	-20900.000
193.31	548.571
193.53	-852.381
193.74	-3200.000
193.96	2411.111
194.18	1131.250
194.39	404.878
194.61	1152.632
194.82	1581.818
195.04	700.000
195.25	5066.667
195.47	431.579
195.68	923.529
195.90	381.395
196.11	776.923
196.33	-2000.000
196.54	-915.789
196.76	645.455
196.97	1933.333
197.19	-17100.000
197.40	1700.000
197.62	2850.000
197.83	1253.846
198.05	660.714
198.26	455.000
198.48	397.059
198.69	-1744.444
198.91	883.333
199.12	611.429
199.34	-2414.286
199.55	249.123
199.77	467.391
199.98	-1772.727
200.20	925.000
200.41	8500.000
200.63	603.571
200.84	833.333
201.06	-1553.846
201.27	-2640.000
201.49	1791.667
201.70	893.750
201.91	-11750.000
202.13	931.579
202.34	441.304
202.56	8650.000
202.77	1081.250
202.99	406.000
203.20	533.333
203.42	-2400.000
203.63	2550.000
203.85	513.889
204.06	573.913
204.28	2012.500
204.49	-1770.000
204.71	441.463
204.92	448.889
205.14	404.444
205.35	272.857
205.56	3033.333
205.78	863.636
205.99	-1480.000
206.21	813.043
206.42	344.068
206.64	-3566.667
206.85	619.048
207.07	710.526
207.28	-3000.000
207.50	329.630
207.71	1200.000
207.93	441.667
208.14	655.556
208.35	764.706
208.57	-564.000
208.78	-470.732
209.00	341.860
209.21	561.905
209.43	660.000
209.64	16000.000
209.86	585.714
210.07	672.414
210.28	-1176.923
210.50	1158.824
210.71	695.000
210.93	543.750
211.14	275.714
211.36	458.696
211.57	810.000
211.78	517.949
212.00	953.333
212.21	1241.176
212.43	1146.667
212.64	663.333
212.86	251.282
213.07	634.483
213.29	516.667
213.50	612.903
213.71	576.667
213.93	3228.571
214.14	1000.000
214.36	2237.500
214.57	290.141
214.78	1173.333
215.00	910.526
215.21	950.000
215.43	245.570
215.64	588.889
215.86	1146.667
216.07	836.842
216.28	431.111
216.50	6500.000
216.71	-14500.000
216.93	777.778
217.14	295.455
217.35	480.000
217.57	3750.000
217.78	445.714
218.00	4333.333
218.21	620.833
218.42	335.937
218.64	-9050.000
218.85	492.157
219.07	2071.429
219.28	272.131
219.49	-1183.333
219.71	2050.000
219.92	259.459
220.14	2075.000
220.35	418.182
220.56	1553.846
220.78	289.474
220.99	600.000
221.21	161.856
221.42	765.217
221.63	10600.000
221.85	733.333
222.06	625.000
222.28	262.667
222.49	-1588.889
222.70	381.481
222.92	-8700.000
223.13	505.263
223.34	254.348
223.56	1658.333
223.77	261.765
223.99	448.889
224.20	305.000
224.41	244.000
224.63	7850.000
224.84	6800.000
225.05	1253.846
225.27	453.846
225.48	371.667
225.69	183.529
225.91	301.563
226.12	336.232
226.34	668.750
226.55	225.000
226.76	388.235
226.98	195.455
227.19	193.590
227.40	292.000
227.62	232.877
227.83	193.750
228.04	197.403
228.26	155.357
228.47	148.333
228.69	111.765
228.90	92.857
229.11	82.969
229.33	100.000
229.54	68.880
229.75	59.717
229.97	61.280
230.18	71.096
230.39	53.283
230.61	63.823
230.82	73.090
231.03	54.140
231.25	73.154
231.46	59.226
231.67	80.000
231.89	81.746
232.10	81.132
232.31	100.446
232.53	83.028
232.74	73.853
232.95	110.784
233.17	69.744
233.38	80.526
233.59	96.067
233.81	120.370
234.02	98.857
234.23	93.299
234.45	99.091
234.66	81.609
234.87	92.442
235.09	107.979
235.30	94.660
235.51	79.821
235.73	73.232
235.94	77.232
236.15	77.985
236.36	101.778
236.58	74.641
236.79	91.379
237.00	61.847
237.22	90.476
237.43	80.934
237.64	88.199
237.86	76.415
238.07	108.824
238.28	88.976
238.50	89.952
238.71	94.819
238.92	87.264
239.13	91.935
239.35	104.979
239.56	76.667
239.77	109.290
239.99	68.952
240.20	89.883
240.41	82.283
240.63	48.060
240.84	71.239
241.05	71.622
241.26	55.462
241.48	63.303
241.69	36.856
241.90	41.379
242.12	37.014
242.33	44.318
242.54	36.807
242.75	32.660
242.97	40.510
243.18	23.572
243.39	25.979
243.61	32.720
243.82	39.807
244.03	30.328
244.24	28.571
244.46	36.376
244.67	41.004
244.88	37.991
245.09	33.168
245.31	43.934
245.52	30.944
245.73	40.728
245.95	60.119
246.16	43.036
246.37	37.879
246.58	33.692
246.80	33.691
247.01	35.496
247.22	26.559
247.43	28.368
247.65	30.776
247.86	28.715
248.07	16.404
248.28	25.674
248.50	26.995
248.71	22.367
248.92	26.329
249.13	22.914
249.35	27.331
249.56	24.300
249.77	26.579
249.98	23.748
250.20	30.865
250.41	39.579
250.62	36.549
250.83	32.634
251.05	34.538
251.26	37.108
251.47	34.729
251.68	36.986
251.90	35.961
252.11	35.940
252.32	26.298
252.53	36.217
252.75	28.737
252.96	40.110
253.17	24.342
253.38	34.470
253.59	29.012
253.81	30.809
254.02	22.305
254.23	28.610
254.44	28.000
254.66	31.536
254.87	36.949
255.08	34.813
255.29	45.229
255.50	38.697
255.72	34.118
255.93	46.188
256.14	58.405
256.35	40.835
256.57	38.084
256.78	32.456
256.99	36.754
257.20	39.875
257.41	46.186
257.63	39.286
257.84	35.294
258.05	32.375
258.26	34.727
258.47	33.169
258.69	29.715
258.90	22.142
259.11	27.649
259.32	27.877
259.53	26.332
259.75	20.170
259.96	22.428
260.17	20.796
260.38	19.385
260.59	21.468
260.81	19.481
261.02	21.577
261.23	22.662
261.44	22.684
261.65	24.328
261.87	22.854
262.08	25.377
262.29	28.148
262.50	19.520
262.71	19.253
262.92	29.344
263.14	24.821
263.35	20.597
263.56	21.895
263.77	28.419
263.98	23.867
264.20	32.180
264.41	22.040
264.62	29.068
264.83	21.260
265.04	37.401
265.25	29.086
265.47	30.686
265.68	33.612
265.89	28.859
266.10	22.602
266.31	34.669
266.52	26.722
266.74	22.585
266.95	23.253
267.16	24.665
267.37	27.065
267.58	24.721
267.79	26.188
268.01	29.362
268.22	21.627
268.43	23.840
268.64	25.549
268.85	18.156
269.06	23.673
269.27	28.440
269.49	22.460
269.70	24.175
269.91	21.091
270.12	22.396
270.33	28.543
270.54	22.868
270.75	18.927
270.97	22.107
271.18	21.662
271.39	20.530
271.60	24.231
271.81	17.547
272.02	18.450
272.23	23.678
272.45	16.917
272.66	18.982
272.87	19.587
273.08	19.401
273.29	20.541
273.50	19.542
273.71	18.632
273.92	17.004
274.14	16.027
274.35	19.948
274.56	25.000
274.77	23.538
274.98	23.358
275.19	20.714
275.40	17.127
275.61	20.631
275.83	24.306
276.04	23.720
276.25	29.122
276.46	25.405
276.67	26.730
276.88	27.065
277.09	25.322
277.30	27.688
277.51	25.087
277.73	23.747
277.94	19.875
278.15	24.042
278.36	27.542
278.57	22.420
278.78	21.910
278.99	25.682
279.20	21.062
279.41	23.219
279.62	24.465
279.84	20.305
280.05	24.767
280.26	16.728
280.47	25.629
280.68	23.327
280.89	19.363
281.10	25.830
281.31	22.457
281.52	25.916
281.73	16.472
281.94	14.973
282.16	20.701
282.37	21.461
282.58	19.928
282.79	24.753
283.00	23.116
283.21	19.310
283.42	17.709
283.63	20.321
283.84	16.277
284.05	21.341
284.26	20.013
284.47	21.811
284.68	21.172
284.89	18.080
285.11	19.669
285.32	15.309
285.53	20.178
285.74	26.090
285.95	21.378
286.16	19.408
286.37	16.930
286.58	18.826
286.79	16.974
287.00	19.980
287.21	17.415
287.42	19.720
287.63	17.795
287.84	20.123
288.05	21.926
288.26	18.118
288.48	20.735
288.69	16.767
288.90	19.963
289.11	22.281
289.32	20.348
289.53	19.310
289.74	14.846
289.95	16.729
290.16	19.082
290.37	17.446
290.58	16.191
290.79	14.038
291.00	18.689
291.21	15.484
291.42	15.670
291.63	16.199
291.84	19.360
292.05	15.292
292.26	16.238
292.47	16.400
292.68	16.503
292.89	18.698
293.10	19.961
293.31	18.521
293.52	16.030
293.73	15.059
293.94	17.611
294.15	15.316
294.36	15.195
294.57	22.266
294.79	17.443
295.00	14.662
295.21	15.968
295.42	18.758
295.63	18.410
295.84	15.740
296.05	16.148
296.26	17.253
296.47	16.447
296.68	16.780
296.89	19.892
297.10	18.835
297.31	18.482
297.52	15.502
297.73	17.102
297.94	15.605
298.15	15.088
298.36	17.417
298.57	15.756
298.78	18.312
298.99	13.136
299.20	18.265
299.41	18.086
299.62	17.757
299.83	16.385
300.04	17.489
300.25	22.382
300.46	21.617
300.67	19.675
300.88	21.342
301.09	13.613
301.30	20.111
301.50	18.249
301.71	20.918
301.92	18.673
302.13	15.316
302.34	16.607
302.55	16.007
302.76	14.919
302.97	16.951
303.18	16.777
303.39	16.028
303.60	14.596
303.81	18.032
304.02	16.272
304.23	16.783
304.44	16.921
304.65	16.062
304.86	17.711
305.07	15.238
305.28	15.174
305.49	19.429
305.70	20.036
305.91	14.643
306.12	15.625
306.33	17.636
306.54	17.450
306.75	18.568
306.96	24.596
307.17	14.337
307.38	16.235
307.58	16.247
307.79	17.239
308.00	17.890
308.21	17.585
308.42	19.910
308.63	18.650
308.84	16.476
309.05	15.748
309.26	15.051
309.47	20.728
309.68	12.864
309.89	15.255
310.10	15.233
310.31	13.587
310.52	15.152
310.73	20.091
310.94	13.179
311.14	15.188
311.35	16.084
311.56	13.690
311.77	16.383
311.98	15.000
312.19	14.190
312.40	12.726
312.61	16.382
312.82	15.831
313.03	15.649
313.24	15.680
313.45	18.444
313.66	16.375
313.86	19.667
314.07	16.735
314.28	22.306
314.49	14.016
314.70	19.884
314.91	21.701
315.12	15.810
315.33	16.065
315.54	13.217
315.75	13.846
315.96	15.735
316.16	12.924
316.37	14.527
316.58	16.229
316.79	15.593
317.00	18.593
317.21	16.005
317.42	19.220
317.63	17.855
317.84	15.582
318.05	14.371
318.25	16.559
318.46	16.265
318.67	13.138
318.88	15.666
319.09	16.534
319.30	15.126
319.51	17.988
319.72	16.422
319.93	14.425
320.13	16.667
320.34	15.639
320.55	15.235
320.76	17.046
320.97	15.254
321.18	18.544
321.39	16.572
321.60	14.485
321.80	20.929
322.01	15.466
322.22	16.635
322.43	14.615
322.64	11.252
322.85	14.884
323.06	18.982
323.27	16.526
323.47	19.128
323.68	15.796
323.89	14.004
324.10	17.379
324.31	13.474
324.52	12.900
324.73	16.011
324.93	14.796
325.14	16.385
325.35	13.977
325.56	15.680
325.77	18.728
325.98	15.126
326.19	16.957
326.39	9.854
326.60	14.713
326.81	18.271
327.02	12.898
327.23	13.570
327.44	19.036
327.64	13.305
327.85	12.808
328.06	18.150
328.27	22.918
328.48	19.989
328.69	14.301
328.90	15.546
329.10	14.301
329.31	17.458
329.52	15.531
329.73	17.574
329.94	14.649
330.15	17.087
330.35	16.466
330.56	16.335
330.77	13.684
330.98	14.813
331.19	16.558
331.39	17.073
331.60	14.363
331.81	12.300
332.02	18.284
332.23	16.102
332.44	13.029
332.64	15.882
332.85	14.294
333.06	17.230
333.27	11.989
333.48	18.099
333.68	13.742
333.89	13.605
334.10	14.876
334.31	16.614
334.52	14.347
334.72	14.177
334.93	15.510
335.14	15.294
335.35	11.696
335.56	17.582
335.76	10.709
335.97	17.922
336.18	12.385
336.39	21.893
336.60	15.664
336.80	14.576
337.01	13.244
337.22	12.897
337.43	15.199
337.64	16.789
337.84	17.150
338.05	17.928
338.26	19.339
338.47	16.717
338.68	12.035
338.88	15.093
339.09	14.454
339.30	14.545
339.51	15.078
339.71	17.878
339.92	11.926
340.13	15.569
340.34	15.365
340.55	13.201
340.75	17.570
340.96	11.946
341.17	15.702
341.38	13.150
341.58	13.813
341.79	16.714
342.00	12.824
342.21	15.784
342.41	10.941
342.62	15.984
342.83	13.959
343.04	12.466
343.24	15.043
343.45	17.393
343.66	13.747
343.87	14.531
344.07	13.466
344.28	15.357
344.49	13.903
344.70	16.136
344.90	15.200
345.11	10.990
345.32	14.330
345.53	13.680
345.73	15.025
345.94	16.922
346.15	16.483
346.36	11.844
346.56	16.183
346.77	18.519
346.98	15.946
347.19	15.935
347.39	13.088
347.60	14.718
347.81	15.538
348.02	17.277
348.22	12.573
348.43	15.409
348.64	13.610
348.84	12.163
349.05	14.885
349.26	17.548
349.47	13.803
349.67	13.896
349.88	14.472
350.09	12.634
350.30	18.613
350.50	15.411
350.71	15.460
350.92	15.491
351.12	14.338
351.33	16.106
351.54	14.781
351.74	14.102
351.95	15.989
352.16	14.100
352.37	17.991
352.57	14.991
352.78	14.812
352.99	17.102
353.19	15.045
353.40	16.443
353.61	17.715
353.82	16.229
354.02	17.122
354.23	15.170
354.44	18.275
354.64	13.271
354.85	17.075
355.06	15.216
355.26	11.821
355.47	16.289
355.68	17.631
355.88	16.952
356.09	16.693
356.30	13.886
356.51	17.092
356.71	15.435
356.92	12.759
357.13	15.701
357.33	20.211
357.54	18.127
357.75	12.329
357.95	17.356
358.16	12.542
358.37	20.028
358.57	15.074
358.78	18.674
358.99	16.457
359.19	17.260
359.40	18.395
359.61	17.199
359.81	20.247
360.02	20.974
360.23	16.018
360.43	15.328
360.64	15.763
360.85	15.902
361.05	13.290
361.26	21.330
361.47	17.292
361.67	19.147
361.88	12.536
362.09	17.489
362.29	14.605
362.50	16.888
362.70	14.442
362.91	19.320
363.12	16.333
363.32	17.570
363.53	17.637
363.74	18.837
363.94	13.680
364.15	18.268
364.36	18.172
364.56	17.753
364.77	17.121
364.98	20.897
365.18	16.163
365.39	19.334
365.59	16.193
365.80	16.591
366.01	19.503
366.21	14.580
366.42	15.063
366.63	19.027
366.83	15.406
367.04	12.531
367.24	19.192
367.45	14.869
367.66	13.840
367.86	16.362
368.07	16.767
368.28	16.215
368.48	15.368
368.69	12.728
368.89	14.929
369.10	17.568
369.31	14.864
369.51	16.456
369.72	16.934
369.92	20.178
370.13	11.226
370.34	17.408
370.54	10.576
370.75	16.572
370.95	12.721
371.16	16.170
371.37	13.882
371.57	14.469
371.78	14.450
371.98	17.384
372.19	17.443
372.40	17.814
372.60	15.396
372.81	15.698
373.01	13.567
373.22	14.647
373.43	17.296
373.63	16.548
373.84	15.925
374.04	15.523
374.25	15.749
374.46	17.348
374.66	15.274
374.87	17.668
375.07	11.731
375.28	14.068
375.48	15.780
375.69	16.841
375.90	11.534
376.10	13.221
376.31	14.138
376.51	13.979
376.72	12.590
376.92	12.622
377.13	15.995
377.34	17.037
377.54	13.835
377.75	16.574
377.95	14.121
378.16	17.427
378.36	15.357
378.57	17.241
378.77	15.083
378.98	16.273
379.19	13.957
379.39	15.734
379.60	16.449
379.80	15.451
380.01	17.367
380.21	14.320
380.42	16.126
380.62	15.483
380.83	14.751
381.04	14.590
381.24	18.098
381.45	16.010
381.65	12.949
381.86	15.664
382.06	16.519
382.27	12.927
382.47	12.235
382.68	16.631
382.88	12.725
383.09	13.676
383.29	13.059
383.50	16.627
383.71	14.596
383.91	13.055
384.12	12.182
384.32	17.466
384.53	12.700
384.73	11.521
384.94	12.397
385.14	13.896
385.35	11.195
385.55	15.098
385.76	12.295
385.96	14.312
386.17	15.656
386.37	16.639
386.58	12.915
386.78	17.352
386.99	12.600
387.19	16.986
387.40	12.965
387.60	17.006
387.81	12.973
388.01	14.502
388.22	14.965
388.42	15.621
388.63	14.831
388.83	17.824
389.04	13.574
389.24	14.328
389.45	14.656
389.65	13.431
389.86	13.777
390.06	12.729
390.27	11.857
390.47	14.357
390.68	12.435
390.88	16.989
391.09	14.655
391.29	13.446
391.50	14.527
391.70	13.405
391.91	12.690
392.11	14.445
392.32	14.519
392.52	16.176
392.73	14.317
392.93	15.325
393.14	14.254
393.34	14.274
393.55	14.836
393.75	14.743
393.95	13.441
394.16	15.960
394.36	15.035
394.57	15.591
394.77	14.762
394.98	14.681
395.18	14.569
395.39	15.399
395.59	15.141
395.80	13.818
396.00	13.559
396.21	17.132
396.41	13.276
396.61	16.103
396.82	14.405
397.02	17.132
397.23	14.656
397.43	13.921
397.64	12.567
397.84	16.618
398.05	11.796
398.25	15.804
398.45	12.729
398.66	14.849
398.86	12.234
399.07	16.703
399.27	13.979
399.48	15.454
399.68	12.979
399.89	13.757
400.09	13.674
400.29	13.043
400.50	14.012
400.70	15.463
400.91	12.968
401.11	14.127
401.32	14.396
401.52	11.761
401.72	13.105
401.93	15.308
402.13	14.986
402.34	14.046
402.54	11.775
402.75	17.235
402.95	11.342
403.15	16.989
403.36	13.276
403.56	14.953
403.77	13.008
403.97	13.621
404.17	12.285
404.38	13.903
404.58	12.687
404.79	14.523
404.99	13.080
405.19	13.831
405.40	14.352
405.60	15.183
405.81	14.013
406.01	14.214
406.21	13.719
406.42	15.479
406.62	14.314
406.83	15.215
407.03	15.814
407.23	12.460
407.44	12.558
407.64	15.460
407.85	14.435
408.05	14.893
408.25	13.111
408.46	16.000
408.66	14.093
408.87	14.028
409.07	14.966
409.27	11.972
409.48	13.065
409.68	14.934
409.88	11.408
410.09	13.481
410.29	13.397
410.50	15.382
410.70	11.746
410.90	15.295
411.11	12.083
411.31	14.470
411.51	13.637
411.72	15.073
411.92	13.747
412.12	13.375
412.33	12.181
412.53	13.808
412.74	11.385
412.94	14.802
413.14	12.801
413.35	13.747
413.55	13.606
413.75	13.871
413.96	9.998
414.16	14.343
414.36	13.682
414.57	14.056
414.77	12.135
414.97	14.711
415.18	11.035
415.38	14.004
415.58	13.017
415.79	14.026
415.99	13.001
416.19	13.709
416.40	12.913
416.60	13.648
416.80	12.878
417.01	14.169
417.21	12.037
417.41	16.186
417.62	13.784
417.82	15.047
418.02	12.053
418.23	14.439
418.43	14.093
418.63	15.040
418.84	15.148
419.04	14.099
419.24	15.541
419.45	15.289
419.65	15.391
419.85	14.859
420.06	14.819
420.26	14.761
420.46	14.842
420.67	15.796
420.87	15.130
421.07	15.268
421.28	14.648
421.48	14.901
421.68	15.359
421.88	15.579
422.09	15.126
422.29	15.333
422.49	15.052
422.70	15.553
422.90	15.361
423.10	16.510
423.31	15.611
423.51	16.183
423.71	15.129
423.91	15.859
424.12	15.819
424.32	15.227
424.52	15.225
424.73	14.810
424.93	14.893
425.13	14.802
425.33	14.852
425.54	15.218
425.74	14.834
425.94	15.174
426.15	15.523
426.35	15.551
426.55	16.041
426.75	15.755
426.96	15.319
427.16	15.707
427.36	16.512
427.57	15.767
427.77	14.940
427.97	15.227
428.17	15.577
428.38	16.002
428.58	13.827
428.78	15.832
428.98	13.303
429.19	14.685
429.39	12.665
429.59	15.733
429.79	12.212
430.00	14.294
430.20	13.679
430.40	14.274
430.60	13.507
430.81	15.207
431.01	13.764
431.21	14.607
431.41	12.876
431.62	14.775
431.82	13.844
432.02	16.183
432.22	12.774
432.43	13.314
432.63	12.346
432.83	15.229
433.03	13.521
433.24	13.972
433.44	13.133
433.64	14.741
433.84	13.853
434.05	14.656
434.25	13.976
434.45	14.840
434.65	15.719
434.85	15.464
435.06	14.722
435.26	15.312
435.46	14.914
435.66	15.788
435.87	14.483
436.07	15.637
436.27	14.723
436.47	15.020
436.67	13.865
436.88	15.176
437.08	15.002
437.28	14.874
437.48	14.472
437.69	15.065
437.89	14.321
438.09	15.980
438.29	14.162
438.49	15.685
438.70	14.454
438.90	13.753
439.10	13.976
439.30	14.712
439.50	13.760
439.71	14.610
439.91	15.449
440.11	15.157
440.31	15.120
440.51	14.376
440.72	14.946
440.92	14.443
441.12	14.690
441.32	15.570
441.52	14.789
441.72	14.869
441.93	14.578
442.13	15.227
442.33	15.013
442.53	15.182
442.73	14.473
442.94	14.912
443.14	14.960
443.34	16.045
443.54	15.738
443.74	15.603
443.94	14.890
444.15	14.575
444.35	14.446
444.55	15.414
444.75	14.931
444.95	14.501
445.15	14.626
445.36	14.502
445.56	14.040
445.76	14.744
445.96	13.995
446.16	14.515
446.36	14.736
446.57	14.610
446.77	13.874
446.97	14.469
447.17	14.293
447.37	14.197
447.57	14.667
447.77	14.725
447.98	14.790
448.18	15.052
448.38	15.002
448.58	15.071
448.78	15.963
448.98	15.456
449.18	14.950
449.39	15.223
449.59	14.787
449.79	15.097
449.99	14.546
450.19	15.491
450.39	15.159
450.59	15.317
450.79	14.749
451.00	15.341
451.20	16.051
451.40	14.785
451.60	14.121
451.80	15.598
452.00	13.870
452.20	14.029
452.40	14.264
452.61	15.447
452.81	13.916
453.01	15.007
453.21	14.441
453.41	14.719
453.61	13.971
453.81	14.970
454.01	14.121
454.21	14.483
454.42	15.174
454.62	15.446
454.82	13.866
455.02	14.195
455.22	13.586
455.42	14.842
455.62	13.117
455.82	13.952
456.02	13.890
456.23	15.406
456.43	14.531
456.63	13.706
456.83	12.005
457.03	15.171
457.23	14.331
457.43	14.981
457.63	13.604
457.83	14.321
458.03	13.586
458.23	14.625
458.43	13.182
458.64	14.679
458.84	13.876
459.04	15.129
459.24	14.234
459.44	14.311
459.64	13.378
459.84	14.145
460.04	14.327
460.24	14.301
460.44	14.108
460.64	14.227
460.84	14.222
461.04	14.396
461.24	14.641
461.45	14.449
461.65	14.812
