SpectraSuite Data File
++++++++++++++++++++++++++++++++++++
Date: Fri Sep 20 03:30:40 EST 2019
User: sgrac
Dark Spectrum Present: Yes
Reference Spectrum Present: Yes
Number of Sampled Component Spectra: 1
Spectrometers: USB4E01596
Integration Time (usec): 100000 (USB4E01596)
Spectra Averaged: 1 (USB4E01596)
Boxcar Smoothing: 0 (USB4E01596)
Correct for Electrical Dark: No (USB4E01596)
Strobe/Lamp Enabled: Yes (USB4E01596)
Correct for Detector Non-linearity: No (USB4E01596)
Correct for Stray Light: No (USB4E01596)
Number of Pixels in Processed Spectrum: 3648
>>>>>Begin Processed Spectral Data<<<<<
178.44	447.826
178.66	447.826
178.87	447.826
179.09	-575.000
179.30	290.000
179.52	653.571
179.74	3220.000
179.95	-354.286
180.17	-750.000
180.38	-1006.250
180.60	-525.806
180.82	804.348
181.03	-3175.000
181.25	-1750.000
181.46	-1290.909
181.68	0.000
181.89	13600.000
182.11	1662.500
182.33	1415.385
182.54	-357.143
182.76	348.000
182.97	566.667
183.19	1855.556
183.40	-975.000
183.62	1242.857
183.84	-365.000
184.05	0.000
184.27	13800.000
184.48	780.000
184.70	8350.000
184.91	1230.769
185.13	393.182
185.34	298.148
185.56	-771.429
185.78	668.421
185.99	-10400.000
186.21	546.429
186.42	1150.000
186.64	225.373
186.85	246.914
187.07	858.333
187.28	-308.108
187.50	-668.182
187.72	331.250
187.93	20900.000
188.15	722.727
188.36	388.462
188.58	794.118
188.79	6350.000
189.01	555.882
189.22	1258.333
189.44	331.915
189.65	-810.000
189.87	950.000
190.09	516.667
190.30	-3720.000
190.52	397.561
190.73	618.519
190.95	-1053.846
191.16	-833.333
191.38	-586.957
191.59	1800.000
191.81	392.500
192.02	402.500
192.24	247.619
192.45	460.000
192.67	740.909
192.88	0.000
193.10	497.059
193.31	-1220.000
193.53	329.545
193.74	450.000
193.96	1730.000
194.18	271.014
194.39	296.000
194.61	570.000
194.82	468.966
195.04	1108.333
195.25	368.085
195.47	873.684
195.68	-1340.000
195.90	2725.000
196.11	4275.000
196.33	-470.370
196.54	700.000
196.76	277.778
196.97	872.222
197.19	-777.778
197.40	394.444
197.62	-914.286
197.83	1140.000
198.05	563.158
198.26	654.545
198.48	1375.000
198.69	591.429
198.91	1614.286
199.12	497.500
199.34	289.231
199.55	-954.545
199.77	560.000
199.98	2860.000
200.20	1054.545
200.41	612.121
200.63	-2160.000
200.84	565.854
201.06	-17900.000
201.27	1135.294
201.49	368.852
201.70	1041.176
201.91	1056.250
202.13	1020.000
202.34	3650.000
202.56	2242.857
202.77	-2800.000
202.99	793.333
203.20	609.524
203.42	-421.429
203.63	529.032
203.85	-683.333
204.06	4366.667
204.28	-2800.000
204.49	2100.000
204.71	275.000
204.92	1300.000
205.14	0.000
205.35	1000.000
205.56	567.857
205.78	548.718
205.99	464.865
206.21	527.586
206.42	3100.000
206.64	-275.610
206.85	786.667
207.07	1123.077
207.28	526.667
207.50	-1750.000
207.71	297.674
207.93	5600.000
208.14	-302.703
208.35	565.517
208.57	-837.500
208.78	375.862
209.00	347.368
209.21	0.000
209.43	721.739
209.64	388.372
209.86	1971.429
210.07	1200.000
210.28	617.857
210.50	2740.000
210.71	325.641
210.93	460.526
211.14	339.344
211.36	440.000
211.57	2150.000
211.78	-713.636
212.00	526.923
212.21	-647.368
212.43	464.516
212.64	414.286
212.86	503.571
213.07	532.143
213.29	282.895
213.50	-273.529
213.71	-10000.000
213.93	-1422.222
214.14	786.667
214.36	-2142.857
214.57	181.395
214.78	477.143
215.00	-4700.000
215.21	-2183.333
215.43	-421.212
215.64	881.250
215.86	-3525.000
216.07	600.000
216.28	308.065
216.50	346.809
216.71	-1960.000
216.93	1135.714
217.14	344.444
217.35	221.053
217.57	-860.000
217.78	1672.727
218.00	354.545
218.21	270.492
218.42	346.939
218.64	326.667
218.85	303.448
219.07	386.000
219.28	800.000
219.49	-981.818
219.71	471.429
219.92	2416.667
220.14	5300.000
220.35	4366.667
220.56	1040.000
220.78	296.825
220.99	2150.000
221.21	486.486
221.42	500.000
221.63	405.556
221.85	12800.000
222.06	441.379
222.28	600.000
222.49	13000.000
222.70	-4033.333
222.92	298.214
223.13	231.884
223.34	298.182
223.56	421.622
223.77	868.750
223.99	211.538
224.20	181.982
224.41	388.372
224.63	379.412
224.84	464.000
225.05	339.583
225.27	268.519
225.48	269.620
225.69	331.818
225.91	220.779
226.12	279.032
226.34	204.348
226.55	221.875
226.76	168.657
226.98	157.895
227.19	490.000
227.40	174.286
227.62	133.784
227.83	124.211
228.04	309.259
228.26	115.741
228.47	132.292
228.69	71.978
228.90	74.719
229.11	68.582
229.33	51.230
229.54	73.469
229.75	48.289
229.97	39.527
230.18	51.630
230.39	31.176
230.61	46.894
230.82	53.268
231.03	42.820
231.25	50.291
231.46	56.508
231.67	52.703
231.89	63.603
232.10	66.412
232.31	63.256
232.53	77.992
232.74	56.967
232.95	68.844
233.17	77.381
233.38	60.185
233.59	105.294
233.81	87.611
234.02	57.635
234.23	88.172
234.45	111.258
234.66	54.950
234.87	92.442
235.09	76.889
235.30	68.387
235.51	57.328
235.73	66.146
235.94	57.706
236.15	63.060
236.36	74.262
236.58	68.201
236.79	68.726
237.00	63.855
237.22	62.931
237.43	67.037
237.64	70.455
237.86	82.353
238.07	63.347
238.28	64.815
238.50	83.471
238.71	60.993
238.92	70.221
239.13	44.643
239.35	71.429
239.56	50.228
239.77	71.542
239.99	54.688
240.20	62.230
240.41	58.621
240.63	52.615
240.84	52.830
241.05	37.322
241.26	39.244
241.48	40.554
241.69	37.923
241.90	32.967
242.12	28.974
242.33	27.947
242.54	26.307
242.75	24.625
242.97	25.641
243.18	20.286
243.39	18.346
243.61	22.970
243.82	17.718
244.03	15.301
244.24	16.981
244.46	21.268
244.67	24.533
244.88	21.224
245.09	22.785
245.31	22.682
245.52	27.891
245.73	29.677
245.95	45.693
246.16	27.641
246.37	22.819
246.58	26.882
246.80	20.966
247.01	22.050
247.22	17.703
247.43	11.978
247.65	13.454
247.86	12.855
248.07	9.980
248.28	8.788
248.50	10.379
248.71	12.323
248.92	10.186
249.13	10.392
249.35	12.205
249.56	15.045
249.77	15.821
249.98	13.714
250.20	17.317
250.41	20.621
250.62	18.478
250.83	24.602
251.05	25.263
251.26	24.804
251.47	23.153
251.68	21.752
251.90	27.429
252.11	21.182
252.32	23.338
252.53	24.689
252.75	18.484
252.96	24.746
253.17	20.208
253.38	17.577
253.59	21.015
253.81	21.804
254.02	20.403
254.23	17.337
254.44	20.330
254.66	19.522
254.87	16.613
255.08	29.299
255.29	31.957
255.50	29.304
255.72	32.265
255.93	34.577
256.14	31.915
256.35	28.241
256.57	32.721
256.78	35.440
256.99	27.660
257.20	27.216
257.41	25.714
257.63	27.810
257.84	25.771
258.05	25.042
258.26	25.806
258.47	28.019
258.69	25.798
258.90	19.613
259.11	20.892
259.32	21.807
259.53	11.690
259.75	14.065
259.96	13.261
260.17	14.286
260.38	12.164
260.59	9.381
260.81	9.462
261.02	8.746
261.23	7.913
261.44	10.030
261.65	10.591
261.87	8.864
262.08	9.925
262.29	11.625
262.50	9.341
262.71	11.577
262.92	14.253
263.14	14.444
263.35	16.527
263.56	19.085
263.77	16.173
263.98	19.181
264.20	18.064
264.41	24.684
264.62	18.773
264.83	15.820
265.04	24.824
265.25	20.672
265.47	25.868
265.68	21.106
265.89	19.409
266.10	15.336
266.31	16.364
266.52	12.727
266.74	12.039
266.95	12.500
267.16	18.014
267.37	17.340
267.58	22.086
267.79	17.545
268.01	15.227
268.22	12.477
268.43	16.652
268.64	11.717
268.85	14.139
269.06	15.896
269.27	15.177
269.49	14.878
269.70	16.155
269.91	14.404
270.12	11.510
270.33	12.146
270.54	16.255
270.75	12.155
270.97	13.407
271.18	16.561
271.39	13.455
271.60	15.646
271.81	13.206
272.02	14.108
272.23	12.759
272.45	10.059
272.66	12.031
272.87	14.177
273.08	9.430
273.29	12.163
273.50	6.824
273.71	12.943
273.92	8.754
274.14	11.155
274.35	11.075
274.56	8.401
274.77	15.057
274.98	14.244
275.19	10.388
275.40	14.448
275.61	13.809
275.83	17.603
276.04	10.795
276.25	13.855
276.46	10.036
276.67	21.435
276.88	11.558
277.09	14.570
277.30	17.749
277.51	12.436
277.73	14.949
277.94	13.808
278.15	15.866
278.36	16.724
278.57	13.963
278.78	15.277
278.99	11.268
279.20	16.152
279.41	17.761
279.62	15.803
279.84	13.488
280.05	14.083
280.26	15.219
280.47	8.940
280.68	13.002
280.89	15.372
281.10	13.502
281.31	15.313
281.52	12.903
281.73	11.641
281.94	11.345
282.16	13.358
282.37	16.124
282.58	9.607
282.79	9.494
283.00	13.676
283.21	8.384
283.42	11.585
283.63	10.719
283.84	10.942
284.05	11.879
284.26	12.205
284.47	11.261
284.68	11.248
284.89	9.889
285.11	11.738
285.32	9.598
285.53	9.667
285.74	10.716
285.95	12.663
286.16	9.586
286.37	9.631
286.58	8.897
286.79	8.547
287.00	7.598
287.21	10.415
287.42	8.463
287.63	7.630
287.84	8.859
288.05	9.428
288.26	8.968
288.48	11.167
288.69	8.648
288.90	10.827
289.11	11.964
289.32	9.551
289.53	9.956
289.74	12.378
289.95	9.772
290.16	10.932
290.37	9.158
290.58	8.747
290.79	10.860
291.00	11.513
291.21	10.574
291.42	9.125
291.63	9.162
291.84	10.098
292.05	9.471
292.26	8.380
292.47	10.033
292.68	7.435
292.89	11.412
293.10	12.326
293.31	8.106
293.52	10.530
293.73	9.734
293.94	10.224
294.15	9.225
294.36	10.753
294.57	10.550
294.79	9.589
295.00	9.571
295.21	9.404
295.42	12.507
295.63	13.759
295.84	9.915
296.05	11.331
296.26	8.850
296.47	11.302
296.68	7.907
296.89	11.311
297.10	10.372
297.31	9.897
297.52	6.965
297.73	10.314
297.94	9.992
298.15	9.313
298.36	8.387
298.57	5.932
298.78	9.231
298.99	7.529
299.20	6.844
299.41	9.258
299.62	9.542
299.83	8.622
300.04	8.762
300.25	10.632
300.46	9.906
300.67	11.400
300.88	11.225
301.09	7.481
301.30	9.949
301.50	11.022
301.71	13.318
301.92	13.536
302.13	8.645
302.34	10.280
302.55	11.229
302.76	10.859
302.97	10.467
303.18	10.272
303.39	8.901
303.60	8.792
303.81	12.338
304.02	11.286
304.23	8.083
304.44	9.798
304.65	10.691
304.86	11.053
305.07	10.160
305.28	11.505
305.49	10.891
305.70	11.308
305.91	8.812
306.12	9.988
306.33	9.134
306.54	11.189
306.75	9.371
306.96	13.358
307.17	9.239
307.38	13.189
307.58	9.653
307.79	13.377
308.00	11.104
308.21	9.670
308.42	11.823
308.63	9.770
308.84	11.751
309.05	7.874
309.26	7.537
309.47	13.375
309.68	8.988
309.89	10.962
310.10	8.213
310.31	9.361
310.52	5.110
310.73	10.822
310.94	9.972
311.14	7.802
311.35	7.395
311.56	10.014
311.77	8.394
311.98	8.468
312.19	9.735
312.40	9.003
312.61	9.293
312.82	9.112
313.03	10.044
313.24	11.724
313.45	8.452
313.66	9.698
313.86	7.782
314.07	8.906
314.28	12.272
314.49	10.619
314.70	13.570
314.91	11.237
315.12	10.400
315.33	10.741
315.54	7.901
315.75	8.581
315.96	7.800
316.16	9.571
316.37	9.815
316.58	8.508
316.79	11.173
317.00	11.588
317.21	8.155
317.42	8.202
317.63	9.674
317.84	9.085
318.05	11.622
318.25	11.532
318.46	8.443
318.67	11.104
318.88	11.477
319.09	11.460
319.30	9.548
319.51	10.504
319.72	11.372
319.93	10.729
320.13	10.427
320.34	11.190
320.55	11.288
320.76	14.518
320.97	8.637
321.18	11.610
321.39	9.888
321.60	10.619
321.80	13.024
322.01	11.795
322.22	9.379
322.43	12.221
322.64	13.362
322.85	11.858
323.06	12.034
323.27	11.842
323.47	10.939
323.68	10.619
323.89	7.927
324.10	11.155
324.31	9.679
324.52	12.080
324.73	13.090
324.93	10.599
325.14	9.072
325.35	9.551
325.56	9.123
325.77	10.350
325.98	8.801
326.19	11.270
326.39	7.561
326.60	7.552
326.81	9.573
327.02	7.819
327.23	7.874
327.44	11.478
327.64	9.073
327.85	9.914
328.06	10.608
328.27	13.041
328.48	12.147
328.69	9.258
328.90	9.208
329.10	8.997
329.31	10.902
329.52	11.365
329.73	13.161
329.94	9.813
330.15	8.051
330.35	11.079
330.56	12.285
330.77	13.550
330.98	12.788
331.19	10.741
331.39	11.640
331.60	10.966
331.81	9.266
332.02	10.375
332.23	12.273
332.44	11.438
332.64	10.383
332.85	11.382
333.06	10.814
333.27	8.751
333.48	9.791
333.68	11.642
333.89	8.027
334.10	10.826
334.31	10.635
334.52	8.912
334.72	8.337
334.93	11.459
335.14	9.156
335.35	11.571
335.56	10.445
335.76	7.888
335.97	11.387
336.18	6.560
336.39	12.336
336.60	12.412
336.80	9.682
337.01	8.943
337.22	7.765
337.43	10.232
337.64	13.573
337.84	11.427
338.05	9.821
338.26	12.210
338.47	10.982
338.68	9.995
338.88	9.170
339.09	9.459
339.30	10.484
339.51	11.336
339.71	12.176
339.92	9.013
340.13	11.162
340.34	10.924
340.55	11.204
340.75	9.467
340.96	7.052
341.17	11.416
341.38	7.484
341.58	9.715
341.79	8.421
342.00	9.758
342.21	10.057
342.41	9.767
342.62	10.193
342.83	11.522
343.04	7.629
343.24	9.780
343.45	10.831
343.66	9.797
343.87	10.662
344.07	9.483
344.28	12.242
344.49	12.216
344.70	11.525
344.90	8.640
345.11	7.626
345.32	10.820
345.53	10.346
345.73	10.026
345.94	12.407
346.15	12.696
346.36	9.889
346.56	10.752
346.77	12.170
346.98	10.501
347.19	12.779
347.39	10.431
347.60	9.992
347.81	11.116
348.02	10.511
348.22	9.480
348.43	11.206
348.64	8.260
348.84	9.308
349.05	10.325
349.26	13.432
349.47	8.884
349.67	10.058
349.88	12.979
350.09	11.864
350.30	11.480
350.50	11.097
350.71	12.544
350.92	10.203
351.12	9.941
351.33	10.991
351.54	10.295
351.74	10.544
351.95	7.982
352.16	9.368
352.37	10.773
352.57	11.652
352.78	9.963
352.99	11.373
353.19	9.468
353.40	8.965
353.61	13.458
353.82	11.135
354.02	10.142
354.23	12.927
354.44	15.349
354.64	11.169
354.85	12.637
355.06	10.403
355.26	8.316
355.47	10.832
355.68	11.278
355.88	11.154
356.09	9.504
356.30	9.992
356.51	15.048
356.71	10.956
356.92	10.511
357.13	10.137
357.33	13.741
357.54	10.241
357.75	7.870
357.95	10.756
358.16	9.760
358.37	11.979
358.57	9.441
358.78	14.062
358.99	10.378
359.19	9.702
359.40	12.830
359.61	10.863
359.81	12.980
360.02	13.259
360.23	7.581
360.43	10.106
360.64	9.059
360.85	9.388
361.05	7.939
361.26	10.851
361.47	8.437
361.67	13.272
361.88	7.478
362.09	10.991
362.29	7.211
362.50	7.897
362.70	6.416
362.91	11.030
363.12	7.573
363.32	8.206
363.53	9.271
363.74	9.733
363.94	6.980
364.15	11.377
364.36	10.338
364.56	8.897
364.77	10.983
364.98	14.328
365.18	10.788
365.39	11.595
365.59	8.762
365.80	8.280
366.01	12.080
366.21	8.808
366.42	9.406
366.63	11.145
366.83	7.927
367.04	7.217
367.24	12.278
367.45	9.924
367.66	7.057
367.86	10.599
368.07	8.629
368.28	9.941
368.48	8.052
368.69	8.033
368.89	8.842
369.10	10.329
369.31	10.734
369.51	9.553
369.72	11.314
369.92	12.000
370.13	7.947
370.34	9.730
370.54	5.344
370.75	10.019
370.95	6.857
371.16	10.801
371.37	8.859
371.57	9.080
371.78	7.683
371.98	9.645
372.19	10.835
372.40	9.906
372.60	8.326
372.81	9.726
373.01	5.897
373.22	8.385
373.43	10.017
373.63	10.044
373.84	8.880
374.04	9.465
374.25	7.676
374.46	9.067
374.66	8.977
374.87	10.629
375.07	6.538
375.28	8.021
375.48	8.779
375.69	9.478
375.90	6.900
376.10	6.250
376.31	6.895
376.51	8.059
376.72	7.160
376.92	7.601
377.13	8.700
377.34	9.666
377.54	8.152
377.75	10.171
377.95	7.301
378.16	10.057
378.36	9.390
378.57	7.788
378.77	6.909
378.98	6.614
379.19	7.502
379.39	7.115
379.60	8.155
379.80	8.630
380.01	8.829
380.21	8.426
380.42	8.331
380.62	8.748
380.83	8.864
381.04	6.709
381.24	8.508
381.45	7.729
381.65	6.472
381.86	7.694
382.06	9.560
382.27	7.025
382.47	7.033
382.68	8.058
382.88	6.745
383.09	8.160
383.29	7.131
383.50	7.502
383.71	7.062
383.91	6.439
384.12	6.659
384.32	8.366
384.53	7.979
384.73	6.773
384.94	6.014
385.14	7.640
385.35	5.300
385.55	7.358
385.76	7.042
385.96	6.891
386.17	6.224
386.37	7.940
386.58	6.015
386.78	8.259
386.99	5.389
387.19	8.878
387.40	6.175
387.60	8.992
387.81	6.070
388.01	7.006
388.22	7.599
388.42	8.245
388.63	8.287
388.83	8.200
389.04	6.047
389.24	7.053
389.45	6.933
389.65	6.408
389.86	6.741
390.06	6.266
390.27	6.301
390.47	5.846
390.68	5.800
390.88	8.670
391.09	7.570
391.29	7.955
391.50	6.805
391.70	8.313
391.91	5.947
392.11	6.473
392.32	7.751
392.52	6.725
392.73	7.478
392.93	6.474
393.14	5.700
393.34	6.679
393.55	7.965
393.75	7.491
393.95	6.633
394.16	6.699
394.36	8.502
394.57	7.089
394.77	7.006
394.98	6.407
395.18	6.841
395.39	6.422
395.59	6.181
395.80	6.841
396.00	5.861
396.21	8.598
396.41	4.475
396.61	7.117
396.82	7.246
397.02	9.221
397.23	6.449
397.43	7.138
397.64	5.885
397.84	8.394
398.05	4.807
398.25	7.034
398.45	5.523
398.66	7.284
398.86	6.283
399.07	7.364
399.27	6.246
399.48	7.574
399.68	5.806
399.89	6.203
400.09	6.829
400.29	5.920
400.50	6.338
400.70	7.472
400.91	7.494
401.11	6.757
401.32	6.921
401.52	5.502
401.72	6.087
401.93	8.435
402.13	7.450
402.34	5.980
402.54	6.620
402.75	7.788
402.95	6.411
403.15	7.332
403.36	4.630
403.56	7.439
403.77	6.062
403.97	6.911
404.17	6.027
404.38	7.775
404.58	4.654
404.79	7.646
404.99	7.264
405.19	6.127
405.40	5.877
405.60	6.687
405.81	5.768
406.01	6.897
406.21	6.504
406.42	6.661
406.62	6.551
406.83	6.164
407.03	7.336
407.23	5.509
407.44	5.654
407.64	6.912
407.85	7.476
408.05	6.212
408.25	6.833
408.46	7.590
408.66	6.304
408.87	7.427
409.07	7.108
409.27	5.936
409.48	6.414
409.68	7.216
409.88	5.649
410.09	6.737
410.29	6.463
410.50	8.974
410.70	4.859
410.90	6.416
411.11	5.136
411.31	6.214
411.51	5.911
411.72	6.641
411.92	5.524
412.12	5.051
412.33	5.490
412.53	5.212
412.74	4.548
412.94	6.462
413.14	5.893
413.35	6.108
413.55	6.180
413.75	7.498
413.96	5.443
414.16	7.287
414.36	6.091
414.57	6.863
414.77	5.609
414.97	7.228
415.18	6.675
415.38	5.818
415.58	5.733
415.79	5.885
415.99	4.981
416.19	6.030
416.40	5.670
416.60	5.752
416.80	5.943
417.01	5.718
417.21	4.928
417.41	7.584
417.62	5.720
417.82	6.233
418.02	5.164
418.23	6.415
418.43	6.201
418.63	5.410
418.84	6.144
419.04	5.438
419.24	6.289
419.45	6.629
419.65	7.007
419.85	6.489
420.06	5.732
420.26	6.255
420.46	5.647
420.67	7.010
420.87	6.532
421.07	7.405
421.28	5.641
421.48	7.658
421.68	6.765
421.88	7.445
422.09	6.485
422.29	6.578
422.49	5.490
422.70	6.626
422.90	6.462
423.10	7.023
423.31	6.882
423.51	7.057
423.71	5.657
423.91	7.129
424.12	7.192
424.32	7.291
424.52	6.236
424.73	5.882
424.93	6.691
425.13	5.742
425.33	6.286
425.54	7.116
425.74	6.339
425.94	7.075
426.15	6.643
426.35	6.573
426.55	6.504
426.75	6.915
426.96	6.043
427.16	6.296
427.36	6.625
427.57	7.029
427.77	5.977
427.97	6.647
428.17	6.442
428.38	6.855
428.58	4.429
428.78	6.458
428.98	5.342
429.19	6.149
429.39	4.792
429.59	5.870
429.79	4.563
430.00	5.391
430.20	5.393
430.40	5.498
430.60	5.083
430.81	6.220
431.01	4.901
431.21	5.881
431.41	4.240
431.62	6.207
431.82	5.940
432.02	6.365
432.22	5.436
432.43	4.174
432.63	4.525
432.83	5.436
433.03	4.898
433.24	4.521
433.44	5.594
433.64	5.606
433.84	4.638
434.05	5.595
434.25	5.592
434.45	6.880
434.65	6.524
434.85	7.140
435.06	6.239
435.26	6.177
435.46	5.635
435.66	6.629
435.87	5.733
436.07	6.179
436.27	5.374
436.47	4.777
436.67	4.853
436.88	6.060
437.08	5.509
437.28	5.603
437.48	5.018
437.69	6.505
437.89	5.582
438.09	6.494
438.29	4.993
438.49	6.272
438.70	5.857
438.90	5.248
439.10	4.400
439.30	5.334
439.50	4.292
439.71	6.005
439.91	5.386
440.11	6.476
440.31	5.660
440.51	5.670
440.72	5.066
440.92	5.686
441.12	5.700
441.32	6.886
441.52	6.247
441.72	6.659
441.93	5.826
442.13	7.152
442.33	5.679
442.53	7.239
442.73	5.022
442.94	6.065
443.14	5.578
443.34	6.663
443.54	5.965
443.74	6.793
443.94	5.890
444.15	5.806
444.35	5.518
444.55	5.615
444.75	5.774
444.95	6.524
445.15	5.303
445.36	6.205
445.56	4.845
445.76	6.094
445.96	5.392
446.16	5.177
446.36	5.070
446.57	5.939
446.77	4.599
446.97	6.328
447.17	6.403
447.37	6.262
447.57	6.665
447.77	6.149
447.98	5.471
448.18	6.614
448.38	5.771
448.58	6.704
448.78	6.439
448.98	6.362
449.18	5.729
449.39	6.368
449.59	6.223
449.79	5.796
449.99	5.420
450.19	6.219
450.39	6.118
450.59	6.500
450.79	5.740
451.00	6.790
451.20	6.868
451.40	6.058
451.60	4.903
451.80	6.923
452.00	5.255
452.20	5.428
452.40	5.915
452.61	5.537
452.81	5.460
453.01	6.221
453.21	4.868
453.41	6.001
453.61	4.777
453.81	5.558
454.01	5.545
454.21	5.448
454.42	6.656
454.62	5.995
454.82	6.130
455.02	4.994
455.22	4.500
455.42	5.317
455.62	3.915
455.82	5.458
456.02	5.757
456.23	5.230
456.43	5.310
456.63	5.322
456.83	4.340
457.03	5.139
457.23	4.999
457.43	5.739
457.63	4.943
457.83	5.681
458.03	4.913
458.23	5.766
458.43	4.010
458.64	4.934
458.84	4.970
459.04	5.123
459.24	5.021
459.44	5.828
459.64	5.606
459.84	6.356
460.04	5.440
460.24	6.576
460.44	5.700
460.64	6.286
460.84	5.622
461.04	6.730
461.24	6.475
461.45	7.152
461.65	6.751
461.85	6.581
462.05	6.385
462.25	6.110
462.45	6.740
462.65	5.888
462.85	4.234
463.05	6.477
463.25	4.619
463.45	6.117
463.65	4.981
463.85	5.714
464.05	5.319
464.25	5.306
464.45	5.844
464.65	5.875
464.85	4.357
465.05	4.670
465.26	5.390
465.46	5.642
465.66	6.247
465.86	5.209
466.06	4.793
466.26	5.710
466.46	4.407
466.66	5.192
466.86	5.166
467.06	6.194
467.26	5.742
467.46	6.149
467.66	5.744
467.86	5.711
468.06	5.217
468.26	5.245
468.46	5.302
468.66	6.233
468.86	4.106
469.06	6.805
469.26	4.258
469.46	5.768
469.66	4.825
469.86	6.534
470.06	5.315
470.26	6.351
470.46	4.955
470.66	6.707
470.86	5.256
471.06	5.937
471.26	4.797
471.46	5.042
471.66	5.686
471.86	5.289
