SpectraSuite Data File
++++++++++++++++++++++++++++++++++++
Date: Wed Sep 18 03:22:37 EST 2019
User: sgrac
Dark Spectrum Present: Yes
Reference Spectrum Present: Yes
Number of Sampled Component Spectra: 1
Spectrometers: USB4E01596
Integration Time (usec): 100000 (USB4E01596)
Spectra Averaged: 3 (USB4E01596)
Boxcar Smoothing: 0 (USB4E01596)
Correct for Electrical Dark: No (USB4E01596)
Strobe/Lamp Enabled: Yes (USB4E01596)
Correct for Detector Non-linearity: No (USB4E01596)
Correct for Stray Light: No (USB4E01596)
Number of Pixels in Processed Spectrum: 3648
>>>>>Begin Processed Spectral Data<<<<<
178.44	-98.387
178.66	-98.387
178.87	-98.387
179.09	-160.000
179.30	186.957
179.52	544.737
179.74	-694.444
179.95	-1200.000
180.17	437.209
180.38	-686.667
180.60	262.857
180.82	1362.500
181.03	174.419
181.25	-1128.571
181.46	-402.500
181.68	-283.721
181.89	432.653
182.11	560.000
182.33	392.157
182.54	361.404
182.76	926.087
182.97	1535.714
183.19	154.348
183.40	211.364
183.62	317.308
183.84	266.129
184.05	475.758
184.27	277.049
184.48	1725.000
184.70	558.333
184.91	517.391
185.13	-368.750
185.34	-233.333
185.56	-481.818
185.78	711.111
185.99	301.639
186.21	353.659
186.42	-1340.000
186.64	230.303
186.85	1287.500
187.07	311.905
187.28	392.857
187.50	-558.824
187.72	298.000
187.93	321.687
188.15	363.235
188.36	-1170.588
188.58	211.688
188.79	-8850.000
189.01	110.204
189.22	354.545
189.44	708.333
189.65	234.831
189.87	281.579
190.09	215.957
190.30	840.000
190.52	931.250
190.73	216.867
190.95	740.909
191.16	243.284
191.38	-14700.000
191.59	426.087
191.81	260.000
192.02	-258.974
192.24	264.516
192.45	257.778
192.67	343.939
192.88	354.688
193.10	381.818
193.31	335.714
193.53	222.581
193.74	284.848
193.96	250.847
194.18	-513.043
194.39	339.216
194.61	782.759
194.82	703.846
195.04	311.111
195.25	380.328
195.47	-2675.000
195.68	174.648
195.90	235.165
196.11	372.917
196.33	1517.647
196.54	504.651
196.76	-792.000
196.97	214.000
197.19	950.000
197.40	184.962
197.62	-372.727
197.83	409.615
198.05	184.564
198.26	-616.000
198.48	269.444
198.69	201.835
198.91	227.536
199.12	-1350.000
199.34	636.000
199.55	13300.000
199.77	217.105
199.98	2733.333
200.20	455.882
200.41	269.014
200.63	261.111
200.84	761.905
201.06	416.129
201.27	266.667
201.49	373.437
201.70	283.607
201.91	477.273
202.13	845.000
202.34	-334.286
202.56	270.000
202.77	-104.651
202.99	302.439
203.20	436.170
203.42	314.286
203.63	102.752
203.85	-568.966
204.06	963.636
204.28	766.667
204.49	400.000
204.71	195.798
204.92	638.462
205.14	973.684
205.35	3225.000
205.56	307.042
205.78	292.593
205.99	164.885
206.21	174.747
206.42	360.870
206.64	488.235
206.85	192.222
207.07	254.286
207.28	213.636
207.50	565.217
207.71	441.860
207.93	360.417
208.14	372.093
208.35	191.525
208.57	214.000
208.78	251.064
209.00	246.237
209.21	163.380
209.43	313.889
209.64	700.000
209.86	1172.727
210.07	243.038
210.28	210.843
210.50	276.812
210.71	306.061
210.93	376.364
211.14	457.500
211.36	761.905
211.57	145.000
211.78	830.769
212.00	297.297
212.21	1588.889
212.43	1230.769
212.64	506.250
212.86	158.182
213.07	392.308
213.29	234.694
213.50	348.333
213.71	238.750
213.93	192.135
214.14	434.375
214.36	375.610
214.57	288.095
214.78	3675.000
215.00	139.024
215.21	424.444
215.43	-3000.000
215.64	211.429
215.86	202.941
216.07	294.521
216.28	248.000
216.50	248.000
216.71	740.000
216.93	-16000.000
217.14	657.895
217.35	-179.661
217.57	193.182
217.78	444.828
218.00	123.810
218.21	261.765
218.42	-4525.000
218.64	635.714
218.85	255.882
219.07	309.302
219.28	410.417
219.49	-7150.000
219.71	298.507
219.92	355.263
220.14	-7900.000
220.35	204.110
220.56	239.130
220.78	159.756
220.99	-162.222
221.21	245.783
221.42	133.553
221.63	1253.846
221.85	-423.333
222.06	172.727
222.28	-403.571
222.49	259.649
222.70	231.034
222.92	423.684
223.13	147.260
223.34	2150.000
223.56	153.846
223.77	271.605
223.99	102.020
224.20	100.000
224.41	182.727
224.63	141.477
224.84	137.903
225.05	175.410
225.27	285.455
225.48	240.244
225.69	234.375
225.91	181.538
226.12	233.333
226.34	212.745
226.55	143.396
226.76	120.930
226.98	217.949
227.19	117.857
227.40	147.183
227.62	65.128
227.83	79.048
228.04	84.324
228.26	118.919
228.47	52.885
228.69	15.082
228.90	25.068
229.11	28.652
229.33	39.326
229.54	35.907
229.75	25.135
229.97	25.550
230.18	20.101
230.39	26.525
230.61	13.776
230.82	29.143
231.03	18.373
231.25	29.651
231.46	36.195
231.67	34.429
231.89	22.487
232.10	42.114
232.31	43.019
232.53	33.778
232.74	48.394
232.95	27.525
233.17	44.371
233.38	39.480
233.59	52.318
233.81	50.533
234.02	40.922
234.23	44.792
234.45	48.603
234.66	42.327
234.87	33.708
235.09	37.321
235.30	38.693
235.51	34.586
235.73	29.216
235.94	45.378
236.15	43.923
236.36	30.112
236.58	40.909
236.79	25.746
237.00	34.823
237.22	37.569
237.43	27.673
237.64	17.339
237.86	32.114
238.07	46.771
238.28	41.845
238.50	35.787
238.71	33.077
238.92	34.852
239.13	37.393
239.35	34.137
239.56	43.100
239.77	63.086
239.99	29.536
240.20	61.250
240.41	27.902
240.63	44.669
240.84	35.314
241.05	23.259
241.26	20.368
241.48	23.420
241.69	27.742
241.90	17.946
242.12	24.276
242.33	17.099
242.54	14.692
242.75	9.642
242.97	17.572
243.18	12.760
243.39	14.009
243.61	8.789
243.82	19.119
244.03	15.088
244.24	13.293
244.46	15.416
244.67	16.099
244.88	15.078
245.09	13.703
245.31	9.142
245.52	13.001
245.73	18.124
245.95	27.603
246.16	21.362
246.37	22.290
246.58	20.293
246.80	16.200
247.01	17.126
247.22	14.815
247.43	10.647
247.65	12.002
247.86	10.160
248.07	7.960
248.28	11.716
248.50	11.988
248.71	10.119
248.92	10.203
249.13	11.663
249.35	9.697
249.56	8.785
249.77	9.871
249.98	8.104
250.20	13.232
250.41	17.411
250.62	14.752
250.83	15.380
251.05	18.558
251.26	16.456
251.47	15.380
251.68	17.368
251.90	14.982
252.11	15.350
252.32	19.415
252.53	18.471
252.75	10.230
252.96	13.441
253.17	15.917
253.38	9.597
253.59	8.840
253.81	12.327
254.02	11.860
254.23	13.472
254.44	16.791
254.66	17.944
254.87	10.981
255.08	15.655
255.29	19.877
255.50	14.092
255.72	17.576
255.93	17.990
256.14	19.883
256.35	12.950
256.57	21.801
256.78	19.567
256.99	22.572
257.20	16.425
257.41	15.938
257.63	11.190
257.84	17.785
258.05	15.930
258.26	17.670
258.47	10.103
258.69	19.457
258.90	11.911
259.11	12.832
259.32	9.219
259.53	11.023
259.75	7.852
259.96	11.659
260.17	8.560
260.38	8.450
260.59	8.176
260.81	8.642
261.02	7.863
261.23	8.064
261.44	9.020
261.65	6.280
261.87	8.652
262.08	8.253
262.29	10.106
262.50	6.742
262.71	7.060
262.92	10.112
263.14	8.970
263.35	8.819
263.56	9.777
263.77	7.274
263.98	10.837
264.20	10.195
264.41	10.812
264.62	10.268
264.83	7.787
265.04	16.253
265.25	10.066
265.47	18.479
265.68	13.457
265.89	12.105
266.10	8.672
266.31	12.492
266.52	8.443
266.74	10.284
266.95	10.341
267.16	11.423
267.37	10.638
267.58	10.350
267.79	12.706
268.01	6.145
268.22	6.636
268.43	10.807
268.64	8.960
268.85	10.201
269.06	8.929
269.27	11.399
269.49	9.219
269.70	12.696
269.91	9.963
270.12	12.087
270.33	12.292
270.54	9.600
270.75	9.267
270.97	10.288
271.18	6.715
271.39	8.772
271.60	14.054
271.81	7.357
272.02	10.910
272.23	8.132
272.45	9.013
272.66	6.640
272.87	8.369
273.08	7.158
273.29	10.903
273.50	7.286
273.71	6.903
273.92	7.406
274.14	8.670
274.35	9.456
274.56	11.622
274.77	9.103
274.98	8.508
275.19	8.082
275.40	9.779
275.61	6.892
275.83	7.328
276.04	8.874
276.25	11.688
276.46	10.558
276.67	10.909
276.88	13.556
277.09	8.622
277.30	10.912
277.51	10.663
277.73	8.132
277.94	8.545
278.15	7.316
278.36	11.033
278.57	9.087
278.78	9.323
278.99	7.090
279.20	9.649
279.41	14.056
279.62	8.716
279.84	13.211
280.05	6.218
280.26	9.420
280.47	10.974
280.68	6.968
280.89	7.963
281.10	8.378
281.31	11.623
281.52	11.091
281.73	6.432
281.94	7.023
282.16	7.750
282.37	10.528
282.58	7.282
282.79	7.662
283.00	10.571
283.21	8.294
283.42	6.957
283.63	10.061
283.84	7.840
284.05	6.275
284.26	8.433
284.47	9.189
284.68	7.442
284.89	7.790
285.11	7.302
285.32	7.949
285.53	8.689
285.74	9.755
285.95	8.966
286.16	7.510
286.37	5.000
286.58	6.991
286.79	5.652
287.00	7.511
287.21	6.187
287.42	7.229
287.63	7.966
287.84	8.018
288.05	7.296
288.26	8.439
288.48	7.321
288.69	8.047
288.90	8.227
289.11	9.033
289.32	9.677
289.53	7.532
289.74	7.163
289.95	7.426
290.16	8.803
290.37	10.196
290.58	5.132
290.79	4.185
291.00	7.069
291.21	8.460
291.42	6.940
291.63	6.916
291.84	6.629
292.05	6.222
292.26	7.529
292.47	6.732
292.68	4.688
292.89	7.558
293.10	6.908
293.31	8.612
293.52	6.027
293.73	5.982
293.94	9.007
294.15	4.762
294.36	6.886
294.57	8.478
294.79	6.008
295.00	4.299
295.21	8.484
295.42	7.466
295.63	9.477
295.84	6.201
296.05	6.116
296.26	6.673
296.47	8.525
296.68	6.145
296.89	8.205
297.10	5.789
297.31	5.300
297.52	5.484
297.73	6.980
297.94	5.066
298.15	5.534
298.36	5.142
298.57	5.768
298.78	6.611
298.99	5.486
299.20	6.980
299.41	7.669
299.62	6.249
299.83	6.153
300.04	7.277
300.25	6.658
300.46	7.263
300.67	8.677
300.88	6.009
301.09	5.690
301.30	7.148
301.50	6.631
301.71	9.563
301.92	8.844
302.13	4.831
302.34	5.913
302.55	7.834
302.76	5.143
302.97	6.672
303.18	6.409
303.39	7.542
303.60	7.907
303.81	7.817
304.02	6.716
304.23	7.849
304.44	7.085
304.65	6.726
304.86	7.278
305.07	5.788
305.28	7.070
305.49	10.156
305.70	7.751
305.91	7.198
306.12	5.354
306.33	5.780
306.54	7.845
306.75	9.836
306.96	10.353
307.17	5.059
307.38	5.112
307.58	6.091
307.79	6.268
308.00	8.589
308.21	4.477
308.42	5.768
308.63	6.388
308.84	9.156
309.05	8.676
309.26	5.734
309.47	7.715
309.68	5.911
309.89	6.771
310.10	7.275
310.31	5.020
310.52	6.626
310.73	8.419
310.94	3.984
311.14	6.246
311.35	7.226
311.56	7.686
311.77	5.771
311.98	4.727
312.19	6.595
312.40	5.422
312.61	4.683
312.82	6.407
313.03	6.017
313.24	5.349
313.45	7.573
313.66	6.994
313.86	7.736
314.07	6.086
314.28	8.259
314.49	3.294
314.70	6.626
314.91	7.855
315.12	5.967
315.33	9.124
315.54	4.146
315.75	6.559
315.96	5.330
316.16	6.628
316.37	8.883
316.58	6.258
316.79	8.449
317.00	7.137
317.21	7.906
317.42	7.980
317.63	6.638
317.84	7.186
318.05	7.156
318.25	6.300
318.46	8.132
318.67	6.268
318.88	8.923
319.09	8.149
319.30	8.427
319.51	7.749
319.72	6.351
319.93	5.052
320.13	8.298
320.34	7.495
320.55	4.199
320.76	7.219
320.97	7.363
321.18	10.331
321.39	5.775
321.60	5.751
321.80	10.492
322.01	8.022
322.22	8.609
322.43	5.423
322.64	8.258
322.85	7.905
323.06	6.322
323.27	10.229
323.47	9.270
323.68	7.464
323.89	6.842
324.10	7.593
324.31	7.672
324.52	9.565
324.73	8.035
324.93	6.673
325.14	7.288
325.35	8.277
325.56	8.009
325.77	9.133
325.98	5.098
326.19	6.619
326.39	4.616
326.60	5.833
326.81	7.052
327.02	4.763
327.23	6.362
327.44	10.301
327.64	6.653
327.85	5.153
328.06	7.174
328.27	10.027
328.48	7.146
328.69	4.731
328.90	6.922
329.10	4.223
329.31	6.306
329.52	6.258
329.73	7.710
329.94	7.203
330.15	11.598
330.35	10.156
330.56	7.521
330.77	8.002
330.98	8.434
331.19	6.147
331.39	7.148
331.60	6.481
331.81	7.261
332.02	8.157
332.23	7.915
332.44	8.140
332.64	7.195
332.85	8.759
333.06	9.697
333.27	6.367
333.48	8.518
333.68	8.078
333.89	6.938
334.10	5.833
334.31	7.690
334.52	7.097
334.72	7.382
334.93	6.886
335.14	4.754
335.35	6.860
335.56	9.185
335.76	6.756
335.97	9.162
336.18	6.709
336.39	11.277
336.60	7.687
336.80	6.606
337.01	7.057
337.22	7.773
337.43	10.234
337.64	10.467
337.84	7.860
338.05	8.503
338.26	11.346
338.47	12.103
338.68	7.854
338.88	10.440
339.09	9.774
339.30	11.339
339.51	8.589
339.71	11.889
339.92	7.515
340.13	10.151
340.34	7.659
340.55	8.156
340.75	8.141
340.96	8.184
341.17	9.615
341.38	9.239
341.58	10.726
341.79	11.026
342.00	7.331
342.21	10.476
342.41	7.595
342.62	10.565
342.83	9.987
343.04	7.832
343.24	12.121
343.45	13.495
343.66	11.432
343.87	12.568
344.07	10.044
344.28	13.234
344.49	13.616
344.70	14.465
344.90	11.088
345.11	8.240
345.32	11.471
345.53	12.366
345.73	12.238
345.94	15.409
346.15	14.415
346.36	13.168
346.56	12.528
346.77	15.691
346.98	12.694
347.19	14.828
347.39	14.941
347.60	12.921
347.81	13.850
348.02	14.719
348.22	10.689
348.43	12.676
348.64	11.630
348.84	14.115
349.05	14.513
349.26	16.507
349.47	11.004
349.67	12.590
349.88	15.362
350.09	15.353
350.30	16.591
350.50	16.423
350.71	15.160
350.92	14.851
351.12	14.945
351.33	15.775
351.54	14.118
351.74	16.068
351.95	11.863
352.16	17.866
352.37	16.086
352.57	15.323
352.78	13.339
352.99	15.315
353.19	14.719
353.40	17.278
353.61	17.294
353.82	17.137
354.02	17.101
354.23	17.079
354.44	17.079
354.64	15.585
354.85	17.265
355.06	16.444
355.26	14.947
355.47	17.318
355.68	18.668
355.88	18.487
356.09	15.615
356.30	15.217
356.51	17.391
356.71	16.961
356.92	14.723
357.13	17.099
357.33	20.051
357.54	15.172
357.75	13.705
357.95	17.694
358.16	15.745
358.37	19.431
358.57	14.239
358.78	19.906
358.99	18.334
359.19	15.735
359.40	19.290
359.61	18.078
359.81	19.797
360.02	19.231
360.23	15.901
360.43	16.926
360.64	16.311
360.85	16.874
361.05	16.829
361.26	19.624
361.47	16.533
361.67	19.558
361.88	15.211
362.09	19.047
362.29	16.775
362.50	16.427
362.70	14.981
362.91	18.233
363.12	16.288
363.32	17.419
363.53	17.793
363.74	19.412
363.94	14.692
364.15	18.751
364.36	17.559
364.56	16.897
364.77	17.908
364.98	21.075
365.18	18.709
365.39	19.440
365.59	16.243
365.80	17.479
366.01	16.081
366.21	16.527
366.42	16.269
366.63	17.967
366.83	16.696
367.04	13.191
367.24	17.692
367.45	16.487
367.66	14.691
367.86	15.089
368.07	15.210
368.28	15.476
368.48	15.902
368.69	14.185
368.89	15.241
369.10	17.028
369.31	15.801
369.51	16.877
369.72	16.163
369.92	18.568
370.13	13.625
370.34	17.049
370.54	11.139
370.75	15.615
370.95	12.667
371.16	17.403
371.37	14.011
371.57	14.359
371.78	13.191
371.98	16.136
372.19	15.868
372.40	16.442
372.60	15.510
372.81	17.359
373.01	13.327
373.22	14.925
373.43	15.693
373.63	17.875
373.84	16.805
374.04	15.143
374.25	15.990
374.46	16.458
374.66	15.142
374.87	16.999
375.07	12.202
375.28	14.690
375.48	14.826
375.69	17.641
375.90	11.813
376.10	12.058
376.31	13.290
376.51	13.390
376.72	14.550
376.92	13.099
377.13	15.445
377.34	14.349
377.54	14.061
377.75	17.026
377.95	13.863
378.16	15.223
378.36	14.157
378.57	15.729
378.77	13.404
378.98	16.483
379.19	13.302
379.39	13.828
379.60	14.097
379.80	14.772
380.01	14.262
380.21	14.173
380.42	15.081
380.62	13.496
380.83	15.324
381.04	13.077
381.24	15.398
381.45	14.236
381.65	11.746
381.86	13.550
382.06	15.095
382.27	12.410
382.47	12.416
382.68	15.427
382.88	11.767
383.09	11.678
383.29	13.132
383.50	14.352
383.71	12.830
383.91	14.080
384.12	12.337
384.32	14.212
384.53	13.212
384.73	12.317
384.94	12.670
385.14	11.880
385.35	11.493
385.55	13.409
385.76	11.726
385.96	13.022
386.17	13.234
386.37	13.589
386.58	12.965
386.78	13.990
386.99	12.375
387.19	14.617
387.40	11.271
387.60	14.487
387.81	13.230
388.01	12.903
388.22	14.358
388.42	14.339
388.63	14.098
388.83	15.713
389.04	11.123
389.24	13.536
389.45	12.025
389.65	11.118
389.86	10.872
390.06	11.267
390.27	11.045
390.47	12.978
390.68	11.458
390.88	14.075
391.09	12.265
391.29	13.275
391.50	12.365
391.70	14.040
391.91	11.893
392.11	12.978
392.32	12.639
392.52	13.349
392.73	11.574
392.93	13.951
393.14	12.368
393.34	12.326
393.55	13.661
393.75	12.394
393.95	12.208
394.16	13.639
394.36	13.810
394.57	13.732
394.77	12.155
394.98	12.051
395.18	12.430
395.39	11.966
395.59	12.077
395.80	12.805
396.00	11.898
396.21	14.040
396.41	12.048
396.61	12.762
396.82	13.283
397.02	14.901
397.23	12.297
397.43	12.305
397.64	10.546
397.84	14.950
398.05	10.186
398.25	13.255
398.45	10.958
398.66	12.463
398.86	11.833
399.07	12.928
399.27	11.284
399.48	12.640
399.68	10.051
399.89	11.253
400.09	11.875
400.29	10.723
400.50	12.958
400.70	12.351
400.91	10.528
401.11	10.989
401.32	12.147
401.52	9.951
401.72	11.463
401.93	14.006
402.13	11.647
402.34	11.211
402.54	9.500
402.75	13.925
402.95	9.157
403.15	12.849
403.36	10.867
403.56	12.425
403.77	10.448
403.97	10.949
404.17	9.451
404.38	11.426
404.58	11.352
404.79	11.779
404.99	11.838
405.19	10.451
405.40	10.777
405.60	12.339
405.81	10.778
406.01	12.055
406.21	10.621
406.42	11.713
406.62	11.630
406.83	12.106
407.03	12.357
407.23	10.197
407.44	9.919
407.64	11.216
407.85	11.473
408.05	10.708
408.25	10.948
408.46	12.464
408.66	11.589
408.87	12.020
409.07	10.354
409.27	9.839
409.48	10.974
409.68	11.482
409.88	8.470
410.09	11.404
410.29	11.728
410.50	12.265
410.70	9.506
410.90	10.793
411.11	10.175
411.31	11.444
411.51	11.285
411.72	11.898
411.92	10.429
412.12	10.036
412.33	9.052
412.53	10.602
412.74	8.550
412.94	10.223
413.14	10.113
413.35	10.194
413.55	10.009
413.75	11.194
413.96	10.157
414.16	10.541
414.36	10.122
414.57	10.053
414.77	10.029
414.97	10.883
415.18	9.600
415.38	10.279
415.58	10.646
415.79	10.212
415.99	10.099
416.19	11.768
416.40	10.311
416.60	10.582
416.80	9.602
417.01	10.876
417.21	9.027
417.41	11.302
417.62	10.469
417.82	10.462
418.02	10.351
418.23	10.788
418.43	10.550
418.63	11.438
418.84	11.068
419.04	10.078
419.24	10.999
419.45	11.290
419.65	12.036
419.85	12.022
420.06	11.002
420.26	11.501
420.46	11.458
420.67	11.745
420.87	11.444
421.07	12.402
421.28	11.033
421.48	12.114
421.68	11.684
421.88	12.404
422.09	11.815
422.29	11.782
422.49	11.204
422.70	11.942
422.90	11.298
423.10	11.908
423.31	12.075
423.51	11.896
423.71	11.143
423.91	11.959
424.12	11.550
424.32	11.879
424.52	11.628
424.73	11.402
424.93	11.617
425.13	11.425
425.33	11.334
425.54	11.733
425.74	11.527
425.94	12.163
426.15	11.526
426.35	11.578
426.55	11.511
426.75	11.714
426.96	11.528
427.16	11.469
427.36	11.440
427.57	12.127
427.77	10.739
427.97	11.951
428.17	11.588
428.38	11.188
428.58	9.510
428.78	11.577
428.98	9.523
429.19	10.871
429.39	8.969
429.59	10.769
429.79	9.796
430.00	9.562
430.20	9.609
430.40	10.396
430.60	9.836
430.81	9.856
431.01	9.355
431.21	10.629
431.41	9.204
431.62	9.909
431.82	9.423
432.02	10.365
432.22	9.058
432.43	10.017
432.63	9.077
432.83	10.546
433.03	9.636
433.24	9.857
433.44	9.539
433.64	10.371
433.84	9.641
434.05	10.416
434.25	10.529
434.45	10.906
434.65	10.805
434.85	11.694
435.06	10.706
435.26	10.570
435.46	10.636
435.66	10.928
435.87	10.088
436.07	11.077
436.27	10.820
436.47	10.481
436.67	9.855
436.88	10.566
437.08	10.328
437.28	10.700
437.48	10.339
437.69	10.631
437.89	9.761
438.09	11.434
438.29	9.955
438.49	11.145
438.70	10.434
438.90	10.261
439.10	9.775
439.30	10.857
439.50	9.818
439.71	11.006
439.91	9.755
440.11	11.084
440.31	10.675
440.51	10.375
440.72	10.052
440.92	10.868
441.12	10.661
441.32	11.574
441.52	10.870
441.72	11.012
441.93	10.599
442.13	11.415
442.33	10.557
442.53	11.382
442.73	10.369
442.94	10.701
443.14	10.695
443.34	10.892
443.54	11.152
443.74	11.041
443.94	10.410
444.15	10.794
444.35	9.801
444.55	10.907
444.75	9.867
444.95	10.672
445.15	10.627
445.36	10.807
445.56	9.785
445.76	10.837
445.96	10.695
446.16	10.731
446.36	10.086
446.57	11.256
446.77	10.006
446.97	11.329
447.17	10.943
447.37	10.748
447.57	11.164
447.77	10.972
447.98	10.488
448.18	11.179
448.38	10.710
448.58	11.422
448.78	11.015
448.98	11.167
449.18	10.707
449.39	11.145
449.59	10.558
449.79	11.223
449.99	10.688
450.19	10.928
450.39	10.445
450.59	11.139
450.79	10.457
451.00	10.926
451.20	10.513
451.40	10.347
451.60	10.076
451.80	10.790
452.00	10.072
452.20	10.858
452.40	10.297
452.61	10.602
452.81	9.873
453.01	9.857
453.21	10.187
453.41	10.381
453.61	10.070
453.81	10.787
454.01	10.094
454.21	10.713
454.42	10.761
454.62	10.560
454.82	10.397
455.02	10.259
455.22	9.548
455.42	9.595
455.62	9.237
455.82	9.893
456.02	9.429
456.23	10.146
456.43	9.629
456.63	10.397
456.83	9.234
457.03	10.362
457.23	9.728
457.43	10.245
457.63	9.874
457.83	10.585
458.03	9.827
458.23	10.201
458.43	9.126
458.64	10.210
458.84	10.097
459.04	9.807
459.24	10.180
459.44	10.478
459.64	10.345
459.84	10.683
460.04	10.332
460.24	10.540
460.44	10.382
460.64	11.067
460.84	10.326
461.04	11.037
461.24	10.596
461.45	10.862
461.65	10.602
461.85	10.922
462.05	10.471
462.25	10.792
462.45	10.966
462.65	10.978
462.85	9.593
463.05	11.174
463.25	9.495
463.45	10.688
463.65	10.135
463.85	10.544
464.05	9.485
464.25	9.544
464.45	10.433
464.65	9.765
464.85	9.473
465.05	9.863
465.26	9.976
465.46	10.628
465.66	9.998
465.86	9.820
466.06	9.818
466.26	10.234
466.46	8.473
466.66	9.784
466.86	9.444
467.06	10.221
467.26	9.712
467.46	10.071
467.66	9.775
467.86	9.989
468.06	9.617
468.26	9.796
468.46	10.047
468.66	10.147
