SpectraSuite Data File
++++++++++++++++++++++++++++++++++++
Date: Sat Sep 21 03:49:13 EST 2019
User: sgrac
Dark Spectrum Present: Yes
Reference Spectrum Present: Yes
Number of Sampled Component Spectra: 1
Spectrometers: USB4E01596
Integration Time (usec): 100000 (USB4E01596)
Spectra Averaged: 1 (USB4E01596)
Boxcar Smoothing: 0 (USB4E01596)
Correct for Electrical Dark: No (USB4E01596)
Strobe/Lamp Enabled: Yes (USB4E01596)
Correct for Detector Non-linearity: No (USB4E01596)
Correct for Stray Light: No (USB4E01596)
Number of Pixels in Processed Spectrum: 3648
>>>>>Begin Processed Spectral Data<<<<<
178.44	-235.714
178.66	-235.714
178.87	-235.714
179.09	-442.857
179.30	-407.692
179.52	0.000
179.74	-1425.000
179.95	1550.000
180.17	693.333
180.38	2600.000
180.60	0.000
180.82	525.000
181.03	-242.105
181.25	326.087
181.46	-177.419
181.68	362.500
181.89	9900.000
182.11	225.714
182.33	-191.111
182.54	-337.500
182.76	-3950.000
182.97	420.000
183.19	2650.000
183.40	231.034
183.62	-207.407
183.84	-192.593
184.05	378.261
184.27	625.000
184.48	828.571
184.70	170.000
184.91	-660.000
185.13	182.222
185.34	-150.000
185.56	151.667
185.78	0.000
185.99	540.000
186.21	286.207
186.42	420.000
186.64	137.097
186.85	162.963
187.07	130.909
187.28	313.333
187.50	-220.000
187.72	1700.000
187.93	-6700.000
188.15	244.000
188.36	-276.471
188.58	-2950.000
188.79	318.182
189.01	263.889
189.22	1820.000
189.44	2800.000
189.65	323.333
189.87	587.500
190.09	-1640.000
190.30	575.000
190.52	-5050.000
190.73	194.643
190.95	228.571
191.16	260.000
191.38	700.000
191.59	123.810
191.81	194.444
192.02	276.596
192.24	558.824
192.45	-1380.000
192.67	331.429
192.88	420.833
193.10	248.000
193.31	490.000
193.53	-6400.000
193.74	85.366
193.96	529.167
194.18	267.742
194.39	-288.889
194.61	489.474
194.82	523.810
195.04	252.381
195.25	2750.000
195.47	192.683
195.68	297.872
195.90	440.000
196.11	189.091
196.33	159.574
196.54	-3533.333
196.76	267.857
196.97	-2266.667
197.19	439.286
197.40	288.235
197.62	207.813
197.83	101.351
198.05	-331.579
198.26	380.000
198.48	188.889
198.69	209.302
198.91	260.784
199.12	-148.571
199.34	-2080.000
199.55	5600.000
199.77	2700.000
199.98	328.000
200.20	108.451
200.41	471.429
200.63	-866.667
200.84	188.235
201.06	800.000
201.27	313.514
201.49	1387.500
201.70	396.296
201.91	219.565
202.13	143.478
202.34	181.132
202.56	-1042.857
202.77	711.111
202.99	403.571
203.20	3750.000
203.42	1175.000
203.63	230.233
203.85	225.714
204.06	177.778
204.28	-940.000
204.49	234.286
204.71	156.410
204.92	0.000
205.14	-385.714
205.35	316.667
205.56	-1420.000
205.78	500.000
205.99	710.000
206.21	-180.645
206.42	274.194
206.64	317.857
206.85	1100.000
207.07	-661.538
207.28	657.143
207.50	-352.632
207.71	274.359
207.93	206.818
208.14	676.471
208.35	421.053
208.57	-10100.000
208.78	800.000
209.00	377.778
209.21	-3600.000
209.43	227.586
209.64	282.353
209.86	714.286
210.07	0.000
210.28	-364.706
210.50	155.102
210.71	221.053
210.93	352.381
211.14	-211.111
211.36	-174.194
211.57	-176.190
211.78	-204.348
212.00	0.000
212.21	281.395
212.43	-118.182
212.64	144.828
212.86	-762.500
213.07	-336.364
213.29	236.842
213.50	8100.000
213.71	156.604
213.93	1514.286
214.14	119.697
214.36	7200.000
214.57	353.846
214.78	331.250
215.00	3000.000
215.21	150.000
215.43	228.000
215.64	271.795
215.86	194.286
216.07	3300.000
216.28	380.000
216.50	-857.143
216.71	-2020.000
216.93	242.553
217.14	303.125
217.35	240.741
217.57	339.286
217.78	1287.500
218.00	-370.000
218.21	310.526
218.42	-2866.667
218.64	464.706
218.85	-455.556
219.07	321.429
219.28	1550.000
219.49	156.579
219.71	1900.000
219.92	213.889
220.14	158.333
220.35	435.000
220.56	205.128
220.78	270.588
220.99	-9500.000
221.21	404.762
221.42	300.000
221.63	280.000
221.85	154.839
222.06	228.571
222.28	231.818
222.49	-2300.000
222.70	0.000
222.92	311.111
223.13	303.333
223.34	-1850.000
223.56	165.789
223.77	93.258
223.99	276.923
224.20	73.810
224.41	300.000
224.63	358.333
224.84	87.931
225.05	157.143
225.27	124.286
225.48	213.043
225.69	128.571
225.91	181.481
226.12	266.667
226.34	117.647
226.55	116.667
226.76	161.290
226.98	152.000
227.19	181.818
227.40	64.463
227.62	62.195
227.83	87.000
228.04	61.538
228.26	75.248
228.47	115.517
228.69	41.447
228.90	46.479
229.11	60.000
229.33	49.758
229.54	53.947
229.75	26.957
229.97	27.897
230.18	27.957
230.39	29.536
230.61	20.126
230.82	31.950
231.03	5.394
231.25	41.414
231.46	36.861
231.67	38.340
231.89	57.255
232.10	33.603
232.31	56.250
232.53	48.023
232.74	44.792
232.95	57.831
233.17	42.197
233.38	37.313
233.59	77.941
233.81	59.709
234.02	57.895
234.23	54.011
234.45	61.842
234.66	42.938
234.87	62.416
235.09	37.778
235.30	27.586
235.51	46.602
235.73	13.208
235.94	51.813
236.15	40.306
236.36	41.270
236.58	45.024
236.79	39.267
237.00	36.715
237.22	43.827
237.43	65.196
237.64	29.258
237.86	51.087
238.07	70.352
238.28	32.240
238.50	34.783
238.71	16.568
238.92	29.762
239.13	35.429
239.35	38.462
239.56	35.417
239.77	66.341
239.99	34.434
240.20	38.947
240.41	26.293
240.63	26.721
240.84	28.685
241.05	27.737
241.26	35.537
241.48	33.038
241.69	23.101
241.90	16.056
242.12	21.173
242.33	18.966
242.54	15.778
242.75	21.822
242.97	15.000
243.18	15.320
243.39	17.262
243.61	15.592
243.82	18.182
244.03	10.360
244.24	4.755
244.46	14.667
244.67	10.629
244.88	19.249
245.09	20.868
245.31	8.061
245.52	21.140
245.73	19.261
245.95	24.094
246.16	17.354
246.37	16.085
246.58	15.327
246.80	19.298
247.01	11.463
247.22	12.597
247.43	11.461
247.65	14.009
247.86	10.166
248.07	9.448
248.28	10.348
248.50	7.322
248.71	10.426
248.92	8.151
249.13	7.766
249.35	9.219
249.56	13.156
249.77	9.605
249.98	12.428
250.20	11.667
250.41	16.313
250.62	11.687
250.83	14.728
251.05	20.064
251.26	12.886
251.47	22.162
251.68	10.055
251.90	19.928
252.11	15.157
252.32	19.056
252.53	13.776
252.75	10.400
252.96	22.436
253.17	13.176
253.38	14.595
253.59	8.616
253.81	15.089
254.02	18.250
254.23	15.385
254.44	20.408
254.66	18.678
254.87	18.953
255.08	19.231
255.29	21.084
255.50	22.366
255.72	23.624
255.93	22.384
256.14	19.318
256.35	21.311
256.57	21.260
256.78	27.854
256.99	23.822
257.20	22.087
257.41	21.325
257.63	18.609
257.84	18.465
258.05	13.125
258.26	10.811
258.47	21.109
258.69	14.566
258.90	10.404
259.11	6.240
259.32	4.201
259.53	9.517
259.75	10.820
259.96	7.062
260.17	6.643
260.38	6.149
260.59	6.815
260.81	8.748
261.02	8.023
261.23	9.932
261.44	6.495
261.65	8.923
261.87	7.273
262.08	6.733
262.29	8.926
262.50	9.254
262.71	6.186
262.92	12.003
263.14	10.428
263.35	7.121
263.56	8.000
263.77	17.845
263.98	12.169
264.20	12.565
264.41	5.939
264.62	15.633
264.83	9.322
265.04	15.621
265.25	10.610
265.47	13.142
265.68	14.286
265.89	6.156
266.10	13.651
266.31	21.479
266.52	12.899
266.74	7.610
266.95	10.995
267.16	14.820
267.37	13.250
267.58	5.119
267.79	7.898
268.01	7.582
268.22	11.078
268.43	12.887
268.64	9.424
268.85	9.712
269.06	8.066
269.27	14.501
269.49	8.004
269.70	11.672
269.91	9.605
270.12	9.131
270.33	12.013
270.54	7.851
270.75	4.094
270.97	11.728
271.18	11.077
271.39	10.830
271.60	14.995
271.81	6.880
272.02	12.075
272.23	10.249
272.45	8.930
272.66	5.985
272.87	5.887
273.08	5.578
273.29	7.777
273.50	12.114
273.71	9.878
273.92	10.668
274.14	2.179
274.35	5.263
274.56	8.796
274.77	5.276
274.98	9.828
275.19	8.703
275.40	7.653
275.61	4.899
275.83	13.527
276.04	11.315
276.25	8.725
276.46	12.136
276.67	8.008
276.88	13.444
277.09	5.748
277.30	9.356
277.51	15.947
277.73	10.400
277.94	8.491
278.15	7.322
278.36	10.132
278.57	9.734
278.78	7.800
278.99	10.732
279.20	8.994
279.41	12.500
279.62	9.509
279.84	9.633
280.05	13.953
280.26	12.008
280.47	11.492
280.68	2.838
280.89	10.000
281.10	9.001
281.31	6.464
281.52	13.060
281.73	10.010
281.94	8.273
282.16	7.233
282.37	11.431
282.58	11.010
282.79	12.175
283.00	9.357
283.21	6.935
283.42	8.860
283.63	5.914
283.84	10.410
284.05	11.004
284.26	9.479
284.47	6.875
284.68	6.592
284.89	7.261
285.11	8.679
285.32	8.289
285.53	6.175
285.74	11.953
285.95	10.137
286.16	8.598
286.37	6.836
286.58	6.285
286.79	11.104
287.00	7.908
287.21	4.389
287.42	7.278
287.63	6.486
287.84	6.352
288.05	7.256
288.26	5.704
288.48	11.148
288.69	5.847
288.90	5.182
289.11	7.026
289.32	9.281
289.53	9.604
289.74	5.214
289.95	3.026
290.16	10.185
290.37	4.645
290.58	5.848
290.79	7.210
291.00	9.838
291.21	4.219
291.42	4.167
291.63	5.366
291.84	9.527
292.05	5.504
292.26	6.598
292.47	7.092
292.68	4.932
292.89	10.186
293.10	7.664
293.31	8.153
293.52	6.732
293.73	4.659
293.94	9.345
294.15	7.126
294.36	3.813
294.57	10.198
294.79	7.292
295.00	6.102
295.21	4.957
295.42	8.699
295.63	10.278
295.84	7.729
296.05	5.944
296.26	6.533
296.47	8.833
296.68	7.211
296.89	6.083
297.10	5.409
297.31	5.080
297.52	8.197
297.73	7.749
297.94	7.762
298.15	5.056
298.36	7.824
298.57	4.183
298.78	7.395
298.99	4.475
299.20	4.869
299.41	4.149
299.62	7.590
299.83	6.517
300.04	6.268
300.25	7.582
300.46	6.235
300.67	6.349
300.88	6.593
301.09	5.249
301.30	6.454
301.50	10.045
301.71	7.547
301.92	7.754
302.13	5.886
302.34	9.109
302.55	6.052
302.76	6.052
302.97	9.916
303.18	5.688
303.39	5.626
303.60	5.501
303.81	4.448
304.02	7.642
304.23	8.665
304.44	7.148
304.65	6.820
304.86	8.817
305.07	6.335
305.28	9.008
305.49	7.571
305.70	7.118
305.91	8.300
306.12	5.899
306.33	7.059
306.54	3.888
306.75	8.445
306.96	13.148
307.17	7.687
307.38	5.649
307.58	6.360
307.79	8.884
308.00	6.863
308.21	7.099
308.42	6.045
308.63	8.889
308.84	8.146
309.05	8.172
309.26	7.234
309.47	6.560
309.68	5.070
309.89	8.658
310.10	7.980
310.31	4.860
310.52	5.270
310.73	8.662
310.94	5.446
311.14	6.883
311.35	6.050
311.56	3.641
311.77	6.325
311.98	6.018
312.19	7.174
312.40	4.788
312.61	4.216
312.82	6.828
313.03	4.772
313.24	7.844
313.45	7.244
313.66	5.581
313.86	7.365
314.07	5.691
314.28	3.791
314.49	5.202
314.70	8.362
314.91	8.130
315.12	6.885
315.33	3.890
315.54	6.387
315.75	8.451
315.96	4.391
316.16	7.310
316.37	6.712
316.58	7.420
316.79	7.101
317.00	6.828
317.21	6.361
317.42	7.173
317.63	5.773
317.84	9.568
318.05	7.423
318.25	6.686
318.46	5.666
318.67	4.277
318.88	8.774
319.09	7.426
319.30	6.882
319.51	4.454
319.72	10.407
319.93	9.215
320.13	6.223
320.34	7.801
320.55	6.509
320.76	8.999
320.97	9.221
321.18	6.971
321.39	7.016
321.60	6.652
321.80	9.033
322.01	3.259
322.22	7.632
322.43	4.186
322.64	4.744
322.85	6.754
323.06	6.777
323.27	8.106
323.47	7.121
323.68	9.157
323.89	5.543
324.10	6.712
324.31	7.456
324.52	5.594
324.73	5.455
324.93	9.038
325.14	5.589
325.35	8.741
325.56	7.589
325.77	5.832
325.98	4.654
326.19	7.435
326.39	5.794
326.60	5.975
326.81	7.942
327.02	7.968
327.23	4.114
327.44	6.663
327.64	6.220
327.85	4.389
328.06	7.574
328.27	10.393
328.48	5.573
328.69	5.890
328.90	5.871
329.10	7.565
329.31	5.146
329.52	8.243
329.73	8.862
329.94	6.163
330.15	6.943
330.35	7.735
330.56	6.711
330.77	7.335
330.98	7.858
331.19	6.748
331.39	6.480
331.60	6.311
331.81	8.740
332.02	9.170
332.23	7.561
332.44	5.475
332.64	6.192
332.85	7.749
333.06	10.794
333.27	4.379
333.48	7.424
333.68	8.210
333.89	6.271
334.10	3.302
334.31	7.211
334.52	8.105
334.72	6.182
334.93	6.140
335.14	5.633
335.35	5.096
335.56	6.518
335.76	4.789
335.97	10.671
336.18	5.933
336.39	7.692
336.60	8.242
336.80	7.243
337.01	6.971
337.22	5.260
337.43	9.897
337.64	9.433
337.84	7.082
338.05	6.937
338.26	10.463
338.47	8.081
338.68	6.892
338.88	6.429
339.09	10.120
339.30	8.211
339.51	6.007
339.71	7.541
339.92	5.998
340.13	10.034
340.34	8.261
340.55	8.303
340.75	10.042
340.96	3.867
341.17	9.689
341.38	6.110
341.58	6.698
341.79	5.257
342.00	5.624
342.21	9.655
342.41	5.399
342.62	6.499
342.83	10.100
343.04	5.305
343.24	9.321
343.45	8.276
343.66	7.679
343.87	8.778
344.07	4.656
344.28	8.855
344.49	8.131
344.70	10.486
344.90	7.285
345.11	6.909
345.32	5.976
345.53	7.672
345.73	8.283
345.94	10.409
346.15	9.918
346.36	8.865
346.56	9.104
346.77	10.558
346.98	9.593
347.19	10.404
347.39	10.255
347.60	8.815
347.81	9.282
348.02	8.525
348.22	5.857
348.43	8.079
348.64	9.255
348.84	9.848
349.05	8.484
349.26	11.833
349.47	7.855
349.67	9.550
349.88	11.074
350.09	7.867
350.30	11.408
350.50	10.049
350.71	10.377
350.92	9.227
351.12	8.346
351.33	8.982
351.54	8.259
351.74	11.263
351.95	10.515
352.16	11.762
352.37	9.903
352.57	9.248
352.78	7.300
352.99	11.438
353.19	7.843
353.40	10.815
353.61	14.815
353.82	10.814
354.02	10.413
354.23	10.426
354.44	10.692
354.64	9.155
354.85	11.858
355.06	11.968
355.26	8.729
355.47	8.657
355.68	12.525
355.88	12.397
356.09	11.834
356.30	9.859
356.51	11.754
356.71	10.746
356.92	7.116
357.13	10.904
357.33	11.925
357.54	9.195
357.75	6.848
357.95	11.207
358.16	9.518
358.37	15.861
358.57	9.117
358.78	13.572
358.99	8.825
359.19	10.608
359.40	11.535
359.61	10.980
359.81	11.357
360.02	13.927
360.23	8.617
360.43	10.733
360.64	8.784
360.85	10.965
361.05	9.280
361.26	11.346
361.47	8.865
361.67	14.138
361.88	7.210
362.09	13.906
362.29	9.599
362.50	8.196
362.70	8.709
362.91	13.658
363.12	9.012
363.32	9.753
363.53	10.993
363.74	13.168
363.94	8.089
364.15	14.136
364.36	11.126
364.56	9.396
364.77	12.469
364.98	14.862
365.18	10.702
365.39	11.363
365.59	9.543
365.80	9.580
366.01	11.656
366.21	10.162
366.42	7.579
366.63	10.938
366.83	11.538
367.04	6.162
367.24	12.539
367.45	9.104
367.66	6.130
367.86	11.416
368.07	9.244
368.28	7.974
368.48	8.992
368.69	7.420
368.89	9.135
369.10	8.810
369.31	8.997
369.51	8.353
369.72	9.153
369.92	11.046
370.13	7.042
370.34	9.586
370.54	6.121
370.75	9.716
370.95	7.123
371.16	9.869
371.37	7.262
371.57	7.504
371.78	9.550
371.98	10.709
372.19	10.346
372.40	12.052
372.60	10.435
372.81	9.982
373.01	6.625
373.22	8.370
373.43	9.707
373.63	12.166
373.84	7.939
374.04	8.255
374.25	9.015
374.46	8.747
374.66	7.764
374.87	9.407
375.07	5.325
375.28	8.678
375.48	7.156
375.69	9.148
375.90	7.107
376.10	7.477
376.31	7.712
376.51	5.981
376.72	7.143
376.92	4.790
377.13	8.542
377.34	10.986
377.54	7.277
377.75	9.618
377.95	7.267
378.16	7.623
378.36	7.048
378.57	9.317
378.77	7.989
378.98	8.532
379.19	6.648
379.39	6.648
379.60	7.790
379.80	8.101
380.01	9.123
380.21	7.935
380.42	7.537
380.62	6.852
380.83	9.073
381.04	6.894
381.24	8.414
381.45	7.085
381.65	5.642
381.86	8.554
382.06	9.331
382.27	4.285
382.47	6.998
382.68	9.944
382.88	3.393
383.09	4.254
383.29	8.169
383.50	9.661
383.71	6.879
383.91	6.851
384.12	4.905
384.32	6.652
384.53	6.629
384.73	4.722
384.94	5.843
385.14	6.356
385.35	6.423
385.55	6.935
385.76	4.919
385.96	7.534
386.17	6.932
386.37	7.795
386.58	7.431
386.78	7.290
386.99	3.623
387.19	6.475
387.40	5.639
387.60	9.091
387.81	5.869
388.01	6.610
388.22	6.872
388.42	8.702
388.63	7.397
388.83	9.970
389.04	5.449
389.24	7.645
389.45	5.875
389.65	5.673
389.86	6.732
390.06	4.957
390.27	5.417
390.47	5.613
390.68	4.406
390.88	8.605
391.09	6.642
391.29	7.456
391.50	6.601
391.70	6.707
391.91	5.873
392.11	6.936
392.32	6.888
392.52	8.156
392.73	5.413
392.93	7.295
393.14	5.276
393.34	6.165
393.55	8.023
393.75	6.001
393.95	5.225
394.16	6.880
394.36	7.515
394.57	8.288
394.77	6.755
394.98	6.443
395.18	5.676
395.39	6.487
395.59	6.199
395.80	6.470
396.00	6.344
396.21	7.534
396.41	6.150
396.61	6.764
396.82	6.359
397.02	9.899
397.23	7.703
397.43	5.906
397.64	4.265
397.84	8.296
398.05	3.278
398.25	6.037
398.45	6.277
398.66	8.244
398.86	6.447
399.07	8.434
399.27	5.727
399.48	7.319
399.68	4.033
399.89	5.829
400.09	6.498
400.29	6.055
400.50	7.461
400.70	6.080
400.91	5.645
401.11	5.713
401.32	5.819
401.52	4.694
401.72	6.068
401.93	7.236
402.13	6.707
402.34	6.068
402.54	5.202
402.75	7.549
402.95	3.924
403.15	8.193
403.36	4.574
403.56	5.826
403.77	5.472
403.97	5.166
404.17	5.057
404.38	7.447
404.58	5.319
404.79	6.709
404.99	6.640
405.19	6.125
405.40	4.693
405.60	6.777
405.81	6.271
406.01	5.154
406.21	5.619
406.42	6.439
406.62	5.526
406.83	6.449
407.03	6.890
407.23	4.906
407.44	5.988
407.64	5.714
407.85	7.215
408.05	6.767
408.25	3.874
408.46	6.141
408.66	6.420
408.87	5.669
409.07	4.545
409.27	4.819
409.48	6.866
409.68	5.973
409.88	4.056
410.09	5.780
410.29	5.327
410.50	8.329
410.70	4.015
410.90	6.474
411.11	4.514
411.31	5.452
411.51	6.629
411.72	6.526
411.92	4.654
412.12	4.363
412.33	4.735
412.53	5.983
412.74	3.200
412.94	4.171
413.14	5.058
413.35	6.114
413.55	5.084
413.75	7.464
413.96	5.087
414.16	4.335
414.36	6.673
414.57	4.854
414.77	5.201
414.97	5.072
415.18	5.098
415.38	6.289
415.58	5.479
415.79	4.312
415.99	4.848
416.19	4.925
416.40	5.039
416.60	5.294
416.80	4.163
417.01	5.698
417.21	4.054
417.41	6.498
417.62	5.884
417.82	5.688
418.02	3.908
418.23	5.750
418.43	5.881
418.63	5.831
418.84	6.314
419.04	5.352
419.24	7.211
419.45	7.336
419.65	6.719
419.85	7.160
420.06	6.495
420.26	7.150
420.46	6.784
420.67	8.159
420.87	7.696
421.07	7.745
421.28	6.136
421.48	8.282
421.68	7.747
421.88	8.381
422.09	7.710
422.29	7.543
422.49	6.556
422.70	8.001
422.90	6.675
423.10	7.410
423.31	7.356
423.51	8.228
423.71	6.780
423.91	7.959
424.12	7.779
424.32	7.814
424.52	7.396
424.73	7.927
424.93	7.714
425.13	7.508
425.33	6.620
425.54	8.080
425.74	7.414
425.94	8.238
426.15	7.637
426.35	7.036
426.55	7.736
426.75	7.524
426.96	7.880
427.16	7.375
427.36	7.061
427.57	8.162
427.77	6.185
427.97	6.336
428.17	6.935
428.38	7.189
428.58	4.437
428.78	6.404
428.98	4.930
429.19	6.182
429.39	4.105
429.59	6.097
429.79	4.931
430.00	3.385
430.20	4.561
430.40	5.396
430.60	5.301
430.81	6.643
431.01	4.913
431.21	5.985
431.41	4.400
431.62	5.574
431.82	5.632
432.02	6.869
432.22	4.355
432.43	4.094
432.63	3.727
432.83	5.618
433.03	5.887
433.24	4.908
433.44	4.854
433.64	5.744
433.84	5.230
434.05	6.750
434.25	5.056
434.45	5.946
434.65	6.530
434.85	6.845
435.06	6.349
435.26	6.369
435.46	5.662
435.66	6.056
435.87	5.238
436.07	5.811
436.27	5.911
436.47	5.399
436.67	4.503
436.88	6.236
437.08	5.168
437.28	5.645
437.48	5.164
437.69	6.879
437.89	5.261
438.09	7.354
438.29	4.700
438.49	6.944
438.70	5.439
438.90	4.991
439.10	5.189
439.30	6.520
439.50	4.740
439.71	6.215
439.91	5.206
440.11	6.810
440.31	6.643
440.51	5.356
440.72	5.602
440.92	6.489
441.12	6.404
441.32	7.767
441.52	7.031
441.72	7.186
441.93	6.126
442.13	7.739
442.33	5.748
442.53	7.878
442.73	5.436
442.94	6.896
443.14	5.184
443.34	7.468
443.54	7.122
443.74	7.208
443.94	6.169
444.15	5.704
444.35	4.530
444.55	6.991
444.75	5.548
444.95	6.392
445.15	5.244
445.36	6.101
445.56	4.363
445.76	7.383
445.96	5.225
446.16	5.958
446.36	5.246
446.57	7.749
446.77	5.389
446.97	7.132
447.17	7.355
447.37	7.246
447.57	6.863
447.77	7.404
447.98	6.474
448.18	7.859
448.38	6.090
448.58	7.756
448.78	6.086
448.98	6.589
449.18	5.960
449.39	5.990
449.59	5.461
449.79	6.339
449.99	4.650
450.19	6.991
450.39	5.487
450.59	6.551
450.79	5.411
451.00	7.562
451.20	6.972
451.40	6.056
451.60	4.256
451.80	6.495
452.00	4.935
452.20	6.242
452.40	5.154
452.61	4.888
452.81	6.023
453.01	6.123
453.21	4.797
453.41	5.692
453.61	6.059
453.81	5.567
454.01	5.323
454.21	6.170
454.42	6.575
454.62	6.309
454.82	4.385
455.02	4.701
455.22	4.401
455.42	4.855
455.62	4.133
455.82	5.900
456.02	4.277
456.23	5.287
456.43	4.797
456.63	5.401
456.83	3.673
457.03	6.445
457.23	5.062
457.43	5.312
457.63	3.873
457.83	5.483
458.03	4.878
458.23	5.463
458.43	4.243
458.64	5.621
458.84	5.281
459.04	5.947
459.24	5.311
459.44	6.491
459.64	5.114
459.84	5.909
460.04	5.874
460.24	6.531
460.44	6.127
460.64	6.775
460.84	5.801
461.04	7.224
461.24	6.604
461.45	7.908
461.65	6.815
461.85	7.140
462.05	6.840
462.25	7.038
462.45	7.386
462.65	6.270
462.85	4.605
463.05	6.133
463.25	4.051
463.45	5.858
463.65	4.805
463.85	6.109
464.05	4.808
464.25	5.756
464.45	5.592
464.65	4.888
464.85	4.250
465.05	5.563
465.26	4.866
465.46	6.265
465.66	5.477
465.86	6.047
466.06	5.349
466.26	5.519
466.46	3.704
466.66	5.527
466.86	4.941
467.06	4.590
467.26	4.800
467.46	6.045
467.66	5.128
467.86	5.817
468.06	5.534
468.26	4.954
468.46	5.445
468.66	5.015
468.86	3.325
469.06	6.404
469.26	4.161
469.46	5.701
469.66	3.963
469.86	6.265
470.06	4.531
470.26	6.348
470.46	4.651
470.66	5.772
470.86	3.957
471.06	5.965
471.26	3.543
471.46	4.415
471.66	5.232
471.86	5.512
472.06	4.801
472.26	6.653
472.46	6.350
472.66	5.979
472.86	4.648
473.06	5.371
473.26	4.694
473.46	5.024
473.66	4.973
473.86	5.345
474.06	5.002
474.26	5.180
474.46	3.818
474.66	6.569
474.86	5.390
475.06	5.513
475.26	4.081
475.46	5.940
475.66	4.499
