SpectraSuite Data File
++++++++++++++++++++++++++++++++++++
Date: Wed Sep 18 03:30:55 EST 2019
User: sgrac
Dark Spectrum Present: Yes
Reference Spectrum Present: Yes
Number of Sampled Component Spectra: 1
Spectrometers: USB4E01596
Integration Time (usec): 100000 (USB4E01596)
Spectra Averaged: 3 (USB4E01596)
Boxcar Smoothing: 0 (USB4E01596)
Correct for Electrical Dark: No (USB4E01596)
Strobe/Lamp Enabled: Yes (USB4E01596)
Correct for Detector Non-linearity: No (USB4E01596)
Correct for Stray Light: No (USB4E01596)
Number of Pixels in Processed Spectrum: 3648
>>>>>Begin Processed Spectral Data<<<<<
178.44	-46.774
178.66	-46.774
178.87	-46.774
179.09	-194.000
179.30	198.913
179.52	568.421
179.74	-1088.889
179.95	-1386.667
180.17	486.047
180.38	-606.667
180.60	321.429
180.82	981.250
181.03	439.535
181.25	-1778.571
181.46	-532.500
181.68	-318.605
181.89	477.551
182.11	505.000
182.33	615.686
182.54	331.579
182.76	730.435
182.97	1421.429
183.19	228.261
183.40	247.727
183.62	332.692
183.84	253.226
184.05	551.515
184.27	467.213
184.48	1800.000
184.70	533.333
184.91	591.304
185.13	-456.250
185.34	-218.333
185.56	-493.939
185.78	1266.667
185.99	439.344
186.21	609.756
186.42	-1750.000
186.64	295.455
186.85	1306.250
187.07	407.143
187.28	497.619
187.50	-805.882
187.72	388.000
187.93	354.217
188.15	439.706
188.36	-1241.176
188.58	248.052
188.79	-8300.000
189.01	175.510
189.22	294.805
189.44	679.167
189.65	232.584
189.87	309.211
190.09	251.064
190.30	746.667
190.52	1356.250
190.73	319.277
190.95	886.364
191.16	250.746
191.38	-19200.000
191.59	556.522
191.81	294.286
192.02	-428.205
192.24	341.935
192.45	267.778
192.67	359.091
192.88	300.000
193.10	461.364
193.31	419.643
193.53	346.774
193.74	336.364
193.96	359.322
194.18	-826.087
194.39	472.549
194.61	737.931
194.82	984.615
195.04	422.222
195.25	304.918
195.47	-4475.000
195.68	190.141
195.90	218.681
196.11	416.667
196.33	1694.118
196.54	469.767
196.76	-740.000
196.97	259.000
197.19	845.000
197.40	256.391
197.62	-590.909
197.83	423.077
198.05	202.013
198.26	-596.000
198.48	355.556
198.69	200.000
198.91	308.696
199.12	-1683.333
199.34	912.000
199.55	10700.000
199.77	269.737
199.98	4883.333
200.20	576.471
200.41	314.085
200.63	403.704
200.84	1171.429
201.06	561.290
201.27	344.444
201.49	310.937
201.70	481.967
201.91	536.364
202.13	1070.000
202.34	-520.000
202.56	396.667
202.77	-203.488
202.99	292.683
203.20	419.149
203.42	504.286
203.63	221.101
203.85	-534.483
204.06	627.273
204.28	1373.333
204.49	560.465
204.71	199.160
204.92	669.231
205.14	989.474
205.35	4300.000
205.56	357.746
205.78	414.815
205.99	187.023
206.21	146.465
206.42	463.043
206.64	597.059
206.85	197.778
207.07	622.857
207.28	239.773
207.50	1052.174
207.71	360.465
207.93	377.083
208.14	453.488
208.35	276.271
208.57	376.000
208.78	282.979
209.00	246.237
209.21	213.380
209.43	413.889
209.64	869.231
209.86	1072.727
210.07	322.785
210.28	218.072
210.50	297.101
210.71	281.818
210.93	352.727
211.14	455.000
211.36	1028.571
211.57	192.500
211.78	526.923
212.00	575.676
212.21	2355.556
212.43	1792.308
212.64	725.000
212.86	237.273
213.07	601.923
213.29	286.735
213.50	270.000
213.71	202.500
213.93	225.843
214.14	500.000
214.36	524.390
214.57	296.429
214.78	4575.000
215.00	278.049
215.21	415.556
215.43	-5180.000
215.64	232.857
215.86	211.765
216.07	231.507
216.28	422.000
216.50	334.000
216.71	913.333
216.93	-16700.000
217.14	989.474
217.35	-172.881
217.57	252.273
217.78	544.828
218.00	220.952
218.21	302.941
218.42	-5025.000
218.64	939.286
218.85	263.235
219.07	400.000
219.28	437.500
219.49	-9200.000
219.71	358.209
219.92	386.842
220.14	-16800.000
220.35	317.808
220.56	254.348
220.78	203.659
220.99	-284.444
221.21	208.434
221.42	190.132
221.63	976.923
221.85	-540.000
222.06	184.848
222.28	-553.571
222.49	356.140
222.70	225.000
222.92	457.895
223.13	103.425
223.34	1891.667
223.56	136.752
223.77	259.259
223.99	230.303
224.20	214.286
224.41	190.000
224.63	124.432
224.84	167.742
225.05	221.311
225.27	458.182
225.48	296.341
225.69	332.812
225.91	298.462
226.12	212.000
226.34	176.471
226.55	131.132
226.76	148.837
226.98	224.359
227.19	145.714
227.40	131.690
227.62	129.744
227.83	72.857
228.04	91.351
228.26	91.892
228.47	61.058
228.69	30.492
228.90	49.864
229.11	39.607
229.33	56.404
229.54	38.610
229.75	24.057
229.97	20.812
230.18	33.108
230.39	31.167
230.61	17.007
230.82	32.714
231.03	13.184
231.25	43.314
231.46	31.044
231.67	33.803
231.89	34.753
232.10	34.142
232.31	32.830
232.53	47.333
232.74	42.771
232.95	40.990
233.17	44.592
233.38	50.355
233.59	52.539
233.81	41.578
234.02	51.873
234.23	46.094
234.45	22.067
234.66	34.158
234.87	54.607
235.09	46.890
235.30	23.367
235.51	47.368
235.73	29.216
235.94	47.899
236.15	42.644
236.36	35.056
236.58	43.939
236.79	46.642
237.00	44.134
237.22	35.912
237.43	46.331
237.64	23.589
237.86	44.512
238.07	55.679
238.28	35.622
238.50	44.172
238.71	34.423
238.92	33.941
239.13	27.350
239.35	43.228
239.56	54.565
239.77	61.133
239.99	38.397
240.20	48.958
240.41	20.774
240.63	26.103
240.84	37.459
241.05	23.704
241.26	30.015
241.48	25.718
241.69	28.602
241.90	15.594
242.12	23.477
242.33	18.732
242.54	17.769
242.75	12.126
242.97	17.855
243.18	12.205
243.39	12.073
243.61	10.926
243.82	13.036
244.03	13.556
244.24	13.074
244.46	13.205
244.67	12.175
244.88	12.586
245.09	16.578
245.31	10.886
245.52	11.611
245.73	19.793
245.95	29.863
246.16	17.183
246.37	18.802
246.58	20.910
246.80	22.800
247.01	14.173
247.22	13.258
247.43	10.360
247.65	12.002
247.86	10.512
248.07	8.724
248.28	8.246
248.50	8.259
248.71	10.388
248.92	6.395
249.13	9.545
249.35	8.258
249.56	9.732
249.77	5.839
249.98	8.691
250.20	8.061
250.41	14.028
250.62	13.875
250.83	15.380
251.05	16.913
251.26	14.527
251.47	17.670
251.68	16.241
251.90	15.055
252.11	15.952
252.32	15.418
252.53	17.834
252.75	11.413
252.96	15.048
253.17	12.394
253.38	11.493
253.59	6.740
253.81	10.426
254.02	10.134
254.23	14.162
254.44	14.677
254.66	18.337
254.87	18.519
255.08	12.060
255.29	21.105
255.50	15.959
255.72	15.449
255.93	15.598
256.14	23.197
256.35	15.622
256.57	21.392
256.78	27.706
256.99	22.572
257.20	18.068
257.41	15.847
257.63	12.078
257.84	17.300
258.05	10.092
258.26	15.531
258.47	18.311
258.69	15.420
258.90	9.903
259.11	10.056
259.32	13.716
259.53	11.076
259.75	9.778
259.96	11.460
260.17	10.329
260.38	8.483
260.59	4.959
260.81	7.241
261.02	5.524
261.23	5.647
261.44	6.312
261.65	4.890
261.87	5.775
262.08	6.726
262.29	7.904
262.50	6.629
262.71	6.592
262.92	7.771
263.14	6.560
263.35	7.173
263.56	11.436
263.77	11.300
263.98	8.064
264.20	12.398
264.41	12.236
264.62	9.989
264.83	7.059
265.04	14.598
265.25	13.520
265.47	13.310
265.68	11.833
265.89	12.403
266.10	11.886
266.31	13.043
266.52	11.916
266.74	11.623
266.95	9.968
267.16	11.219
267.37	12.271
267.58	9.168
267.79	9.141
268.01	8.165
268.22	8.738
268.43	8.495
268.64	7.988
268.85	10.870
269.06	10.308
269.27	7.390
269.49	5.117
269.70	10.234
269.91	9.963
270.12	12.516
270.33	11.438
270.54	12.226
270.75	9.841
270.97	7.934
271.18	10.515
271.39	7.602
271.60	9.518
271.81	7.902
272.02	11.141
272.23	7.167
272.45	7.097
272.66	6.774
272.87	6.814
273.08	6.449
273.29	7.757
273.50	4.816
273.71	5.098
273.92	6.787
274.14	6.479
274.35	7.138
274.56	7.619
274.77	6.122
274.98	7.611
275.19	7.353
275.40	11.812
275.61	7.638
275.83	7.910
276.04	9.898
276.25	13.066
276.46	8.911
276.67	7.708
276.88	11.081
277.09	4.795
277.30	11.446
277.51	6.909
277.73	8.324
277.94	9.598
278.15	10.045
278.36	10.878
278.57	5.955
278.78	7.660
278.99	9.413
279.20	9.773
279.41	12.060
279.62	7.715
279.84	9.919
280.05	4.089
280.26	9.098
280.47	10.152
280.68	7.839
280.89	6.242
281.10	10.338
281.31	9.146
281.52	9.579
281.73	7.264
281.94	5.876
282.16	7.377
282.37	8.768
282.58	9.460
282.79	7.067
283.00	8.139
283.21	8.357
283.42	7.516
283.63	7.591
283.84	6.136
284.05	8.296
284.26	7.387
284.47	7.662
284.68	7.349
284.89	4.607
285.11	7.658
285.32	7.340
285.53	6.467
285.74	9.618
285.95	6.373
286.16	8.557
286.37	4.124
286.58	4.560
286.79	5.411
287.00	4.586
287.21	4.234
287.42	4.850
287.63	6.552
287.84	5.972
288.05	5.394
288.26	7.172
288.48	6.614
288.69	6.239
288.90	7.037
289.11	7.265
289.32	7.444
289.53	6.558
289.74	4.571
289.95	6.779
290.16	6.420
290.37	7.459
290.58	5.132
290.79	4.027
291.00	5.127
291.21	7.097
291.42	6.915
291.63	5.229
291.84	5.988
292.05	4.983
292.26	6.540
292.47	6.116
292.68	3.405
292.89	6.878
293.10	8.431
293.31	5.949
293.52	4.662
293.73	5.778
293.94	6.667
294.15	4.432
294.36	5.820
294.57	5.542
294.79	5.681
295.00	6.059
295.21	6.759
295.42	6.765
295.63	9.044
295.84	4.456
296.05	4.846
296.26	5.735
296.47	6.919
296.68	5.619
296.89	6.332
297.10	6.328
297.31	6.319
297.52	4.959
297.73	5.230
297.94	2.650
298.15	4.416
298.36	3.952
298.57	4.349
298.78	5.332
298.99	4.566
299.20	4.970
299.41	5.113
299.62	4.166
299.83	5.644
300.04	4.984
300.25	5.798
300.46	5.627
300.67	7.100
300.88	5.126
301.09	3.793
301.30	5.474
301.50	6.429
301.71	7.354
301.92	7.028
302.13	4.649
302.34	5.253
302.55	5.966
302.76	6.043
302.97	4.118
303.18	5.895
303.39	6.873
303.60	6.257
303.81	5.114
304.02	5.071
304.23	5.684
304.44	6.689
304.65	5.623
304.86	6.612
305.07	5.410
305.28	5.743
305.49	6.805
305.70	7.100
305.91	6.044
306.12	4.091
306.33	5.015
306.54	7.764
306.75	6.262
306.96	7.878
307.17	4.947
307.38	6.825
307.58	4.258
307.79	5.893
308.00	8.276
308.21	4.708
308.42	2.783
308.63	7.397
308.84	6.166
309.05	6.873
309.26	3.750
309.47	6.620
309.68	4.609
309.89	6.405
310.10	4.682
310.31	4.250
310.52	3.961
310.73	7.047
310.94	3.829
311.14	3.875
311.35	6.286
311.56	5.957
311.77	5.498
311.98	3.566
312.19	4.350
312.40	4.826
312.61	5.208
312.82	4.995
313.03	5.316
313.24	4.576
313.45	5.748
313.66	5.691
313.86	6.458
314.07	5.288
314.28	4.974
314.49	3.754
314.70	4.903
314.91	6.876
315.12	6.068
315.33	7.599
315.54	5.867
315.75	6.793
315.96	3.622
316.16	6.258
316.37	7.876
316.58	6.406
316.79	6.728
317.00	8.284
317.21	7.356
317.42	7.553
317.63	4.814
317.84	7.212
318.05	5.584
318.25	6.406
318.46	6.834
318.67	5.710
318.88	8.192
319.09	7.798
319.30	6.861
319.51	7.366
319.72	6.750
319.93	4.434
320.13	5.889
320.34	7.054
320.55	3.403
320.76	6.836
320.97	6.957
321.18	7.658
321.39	7.155
321.60	8.895
321.80	7.847
322.01	6.318
322.22	7.992
322.43	6.547
322.64	7.381
322.85	6.780
323.06	7.094
323.27	8.271
323.47	8.735
323.68	7.769
323.89	6.459
324.10	7.593
324.31	7.567
324.52	7.354
324.73	5.602
324.93	5.319
325.14	5.284
325.35	7.548
325.56	5.949
325.77	7.974
325.98	4.753
326.19	4.555
326.39	6.033
326.60	7.018
326.81	4.036
327.02	5.094
327.23	6.715
327.44	7.899
327.64	4.285
327.85	4.286
328.06	7.015
328.27	9.754
328.48	6.982
328.69	3.903
328.90	4.353
329.10	4.369
329.31	6.259
329.52	5.303
329.73	8.471
329.94	7.863
330.15	8.091
330.35	9.131
330.56	7.393
330.77	7.692
330.98	8.203
331.19	7.472
331.39	6.605
331.60	7.813
331.81	5.814
332.02	7.550
332.23	8.614
332.44	7.349
332.64	8.448
332.85	7.828
333.06	10.580
333.27	5.494
333.48	8.144
333.68	7.023
333.89	7.194
334.10	7.660
334.31	8.231
334.52	8.288
334.72	7.846
334.93	7.196
335.14	4.968
335.35	7.995
335.56	8.575
335.76	6.615
335.97	9.750
336.18	7.073
336.39	9.783
336.60	7.317
336.80	7.647
337.01	8.049
337.22	6.742
337.43	10.505
337.64	9.700
337.84	7.224
338.05	7.427
338.26	11.060
338.47	9.822
338.68	7.876
338.88	10.773
339.09	10.328
339.30	10.282
339.51	6.765
339.71	11.156
339.92	9.269
340.13	10.739
340.34	8.832
340.55	8.676
340.75	10.119
340.96	9.548
341.17	11.179
341.38	10.578
341.58	11.104
341.79	10.687
342.00	10.179
342.21	11.131
342.41	9.305
342.62	11.321
342.83	11.386
343.04	9.173
343.24	12.579
343.45	13.644
343.66	11.580
343.87	10.719
344.07	10.929
344.28	12.883
344.49	14.207
344.70	14.650
344.90	10.905
345.11	9.358
345.32	14.084
345.53	12.465
345.73	13.521
345.94	15.895
346.15	16.070
346.36	14.304
346.56	12.829
346.77	15.468
346.98	14.810
347.19	13.052
347.39	14.672
347.60	12.996
347.81	16.898
348.02	16.284
348.22	10.549
348.43	13.727
348.64	11.772
348.84	14.946
349.05	15.726
349.26	17.359
349.47	12.178
349.67	13.884
349.88	16.483
350.09	13.599
350.30	17.763
350.50	14.919
350.71	15.715
350.92	15.264
351.12	16.139
351.33	13.894
351.54	15.349
351.74	16.224
351.95	13.217
352.16	18.061
352.37	17.968
352.57	14.752
352.78	15.697
352.99	15.866
353.19	14.297
353.40	18.428
353.61	17.792
353.82	17.685
354.02	17.062
354.23	17.585
354.44	18.354
354.64	15.739
354.85	18.505
355.06	15.765
355.26	14.854
355.47	17.374
355.68	20.090
355.88	18.254
356.09	16.470
356.30	15.253
356.51	16.190
356.71	17.514
356.92	14.741
357.13	17.457
357.33	20.680
357.54	17.566
357.75	12.937
357.95	18.920
358.16	14.606
358.37	19.767
358.57	13.714
358.78	19.799
358.99	17.943
359.19	16.355
359.40	18.711
359.61	17.623
359.81	19.599
360.02	20.995
360.23	14.745
360.43	17.569
360.64	17.204
360.85	17.814
361.05	15.358
361.26	19.496
361.47	15.522
361.67	19.180
361.88	13.701
362.09	19.295
362.29	14.978
362.50	16.112
362.70	13.910
362.91	18.635
363.12	16.166
363.32	17.713
363.53	16.619
363.74	19.562
363.94	13.330
364.15	19.085
364.36	16.644
364.56	15.950
364.77	17.524
364.98	19.221
365.18	15.934
365.39	18.209
365.59	15.555
365.80	16.628
366.01	17.154
366.21	16.051
366.42	15.285
366.63	18.225
366.83	16.681
367.04	12.253
367.24	18.071
367.45	14.652
367.66	14.284
367.86	14.313
368.07	14.160
368.28	15.319
368.48	15.029
368.69	13.811
368.89	15.499
369.10	16.087
369.31	15.772
369.51	16.684
369.72	18.014
369.92	18.956
370.13	11.550
370.34	15.691
370.54	10.479
370.75	16.368
370.95	12.784
371.16	15.945
371.37	12.355
371.57	14.460
371.78	14.274
371.98	14.945
372.19	15.323
372.40	15.881
372.60	15.340
372.81	15.184
373.01	12.429
373.22	13.395
373.43	15.414
373.63	15.766
373.84	15.622
374.04	15.317
374.25	14.313
374.46	15.665
374.66	14.946
374.87	14.990
375.07	11.292
375.28	12.255
375.48	14.333
375.69	15.938
375.90	10.678
376.10	11.514
376.31	12.449
376.51	11.725
376.72	11.895
376.92	11.124
377.13	14.583
377.34	14.532
377.54	13.521
377.75	14.634
377.95	12.214
378.16	13.948
378.36	13.555
378.57	15.955
378.77	13.702
378.98	13.970
379.19	12.032
379.39	12.870
379.60	12.249
379.80	13.043
380.01	14.344
380.21	12.204
380.42	13.836
380.62	12.859
380.83	13.328
381.04	11.683
381.24	12.869
381.45	12.939
381.65	11.734
381.86	13.420
382.06	13.554
382.27	10.430
382.47	11.297
382.68	13.056
382.88	11.119
383.09	11.455
383.29	11.578
383.50	13.927
383.71	11.851
383.91	12.583
384.12	10.987
384.32	12.981
384.53	11.854
384.73	10.841
384.94	11.319
385.14	11.052
385.35	9.834
385.55	11.787
385.76	11.444
385.96	11.214
386.17	12.160
386.37	11.733
386.58	10.804
386.78	13.480
386.99	10.924
387.19	12.955
387.40	9.945
387.60	14.125
387.81	10.849
388.01	10.763
388.22	13.107
388.42	12.767
388.63	13.185
388.83	13.294
389.04	9.491
389.24	11.495
389.45	10.327
389.65	10.265
389.86	10.097
390.06	8.941
390.27	9.861
390.47	11.364
390.68	9.739
390.88	12.682
391.09	11.961
391.29	12.562
391.50	10.845
391.70	11.580
391.91	10.651
392.11	10.925
392.32	10.750
392.52	11.571
392.73	10.089
392.93	11.743
393.14	9.941
393.34	11.475
393.55	11.889
393.75	10.128
393.95	10.814
394.16	11.366
394.36	12.495
394.57	12.264
394.77	10.729
394.98	10.612
395.18	11.696
395.39	11.015
395.59	9.826
395.80	11.065
396.00	10.874
396.21	12.293
396.41	9.750
396.61	12.008
396.82	11.393
397.02	13.188
397.23	10.782
397.43	10.812
397.64	8.685
397.84	12.541
398.05	8.125
398.25	12.088
398.45	9.636
398.66	11.211
398.86	10.572
399.07	12.164
399.27	9.679
399.48	10.898
399.68	9.571
399.89	9.050
400.09	11.027
400.29	9.827
400.50	10.152
400.70	11.082
400.91	9.829
401.11	9.772
401.32	10.139
401.52	9.050
401.72	9.519
401.93	11.563
402.13	10.252
402.34	9.971
402.54	8.129
402.75	12.108
402.95	8.462
403.15	11.526
403.36	9.083
403.56	10.414
403.77	8.283
403.97	10.165
404.17	8.613
404.38	10.109
404.58	8.230
404.79	10.163
404.99	10.430
405.19	8.792
405.40	9.577
405.60	10.609
405.81	8.609
406.01	9.359
406.21	9.086
406.42	9.428
406.62	10.019
406.83	10.344
407.03	10.090
407.23	9.043
407.44	8.535
407.64	9.727
407.85	9.365
408.05	10.026
408.25	9.047
408.46	10.034
408.66	10.057
408.87	9.279
409.07	9.013
409.27	7.869
409.48	8.739
409.68	10.352
409.88	7.122
410.09	9.902
410.29	9.918
410.50	11.166
410.70	7.440
410.90	8.950
411.11	8.637
411.31	9.440
411.51	9.276
411.72	9.711
411.92	8.784
412.12	8.510
412.33	7.409
412.53	8.565
412.74	7.198
412.94	9.111
413.14	9.673
413.35	8.426
413.55	8.822
413.75	9.613
413.96	7.166
414.16	9.352
414.36	9.073
414.57	8.650
414.77	7.399
414.97	9.175
415.18	7.970
415.38	8.192
415.58	7.754
415.79	7.274
415.99	7.607
416.19	9.288
416.40	8.662
416.60	8.755
416.80	7.750
417.01	8.620
417.21	7.185
417.41	10.395
417.62	8.679
417.82	8.349
418.02	7.580
418.23	8.988
418.43	8.327
418.63	9.669
418.84	9.088
419.04	8.173
419.24	9.098
419.45	9.432
419.65	9.771
419.85	9.851
420.06	9.456
420.26	9.449
420.46	8.693
420.67	9.771
420.87	9.296
421.07	10.229
421.28	8.527
421.48	9.952
421.68	9.041
421.88	10.072
422.09	9.421
422.29	9.369
422.49	9.346
422.70	9.479
422.90	9.201
423.10	9.231
423.31	9.469
423.51	9.802
423.71	9.085
423.91	9.468
424.12	9.223
424.32	9.565
424.52	8.941
424.73	9.040
424.93	9.454
425.13	9.417
425.33	8.936
425.54	9.055
425.74	9.421
425.94	10.111
426.15	9.630
426.35	9.103
426.55	9.559
426.75	9.394
426.96	8.849
427.16	9.154
427.36	9.793
427.57	9.613
427.77	8.701
427.97	9.252
428.17	9.109
428.38	9.766
428.58	6.707
428.78	9.363
428.98	7.392
429.19	8.867
429.39	7.378
429.59	8.644
429.79	7.370
430.00	7.497
430.20	7.182
430.40	7.972
430.60	8.097
430.81	8.200
431.01	7.294
431.21	8.409
431.41	7.335
431.62	8.094
431.82	7.639
432.02	8.618
432.22	7.605
432.43	7.662
432.63	6.745
432.83	8.219
433.03	8.138
433.24	7.650
433.44	7.370
433.64	8.367
433.84	7.442
434.05	8.542
434.25	8.044
434.45	8.688
434.65	8.867
434.85	8.861
435.06	7.954
435.26	8.530
435.46	7.998
435.66	8.708
435.87	7.608
436.07	8.218
436.27	8.639
436.47	8.057
436.67	7.397
436.88	8.484
437.08	7.901
437.28	8.510
437.48	7.778
437.69	9.073
437.89	8.089
438.09	8.592
438.29	7.336
438.49	8.237
438.70	8.139
438.90	7.799
439.10	7.966
439.30	8.302
439.50	7.574
439.71	8.519
439.91	7.883
440.11	8.901
440.31	8.117
440.51	8.041
440.72	7.933
440.92	8.672
441.12	8.361
441.32	9.266
441.52	8.471
441.72	8.810
441.93	8.214
442.13	8.955
442.33	8.222
442.53	8.661
442.73	7.881
442.94	8.790
443.14	8.206
443.34	8.845
443.54	8.591
443.74	8.742
443.94	7.997
444.15	8.255
444.35	8.028
444.55	8.638
444.75	8.233
444.95	8.302
445.15	8.393
445.36	8.665
445.56	7.339
445.76	8.111
445.96	8.003
446.16	8.232
446.36	7.613
446.57	8.652
446.77	7.652
446.97	8.540
447.17	9.000
447.37	8.814
447.57	8.932
447.77	8.520
447.98	8.228
448.18	8.913
448.38	8.107
448.58	8.952
448.78	8.768
448.98	8.584
449.18	8.030
449.39	8.450
449.59	8.100
449.79	8.728
449.99	8.472
450.19	8.401
450.39	8.630
450.59	8.675
450.79	7.755
451.00	8.554
451.20	8.604
451.40	7.682
451.60	8.079
451.80	8.603
452.00	7.804
452.20	8.388
452.40	7.707
452.61	7.660
452.81	7.591
453.01	8.142
453.21	7.910
453.41	8.282
453.61	8.188
453.81	7.900
454.01	7.474
454.21	8.109
454.42	8.336
454.62	8.160
454.82	7.677
455.02	7.650
455.22	7.246
455.42	7.840
455.62	6.782
455.82	8.060
456.02	6.855
456.23	7.773
456.43	7.635
456.63	7.717
456.83	6.850
457.03	7.838
457.23	7.435
457.43	8.298
457.63	7.724
457.83	7.993
458.03	7.007
458.23	8.294
458.43	6.805
458.64	7.755
458.84	7.597
459.04	7.848
459.24	7.952
459.44	8.028
459.64	7.756
459.84	8.175
460.04	7.714
460.24	8.065
460.44	8.144
460.64	8.430
460.84	7.806
461.04	8.243
461.24	8.319
461.45	9.074
461.65	8.530
461.85	8.566
462.05	8.378
462.25	8.197
462.45	8.613
462.65	8.446
462.85	7.312
463.05	8.323
463.25	6.830
463.45	8.161
463.65	7.675
463.85	7.656
464.05	7.726
464.25	7.427
464.45	8.250
464.65	7.887
464.85	7.356
465.05	7.531
465.26	7.341
465.46	8.402
465.66	8.120
465.86	7.766
466.06	7.448
466.26	7.990
466.46	6.558
466.66	7.193
466.86	7.371
467.06	7.814
467.26	7.435
467.46	8.008
467.66	7.530
467.86	7.335
468.06	7.738
468.26	7.422
468.46	7.662
468.66	7.581
468.86	6.792
469.06	8.552
469.26	6.732
469.46	8.307
469.66	6.807
469.86	8.124
470.06	7.207
470.26	8.197
470.46	7.054
470.66	7.942
470.86	7.006
471.06	7.621
471.26	6.634
471.46	7.061
471.66	7.114
471.86	7.486
472.06	7.400
472.26	8.418
472.46	7.789
472.66	7.702
