SpectraSuite Data File
++++++++++++++++++++++++++++++++++++
Date: Sat Sep 21 04:19:53 EST 2019
User: sgrac
Dark Spectrum Present: Yes
Reference Spectrum Present: Yes
Number of Sampled Component Spectra: 1
Spectrometers: USB4E01596
Integration Time (usec): 100000 (USB4E01596)
Spectra Averaged: 1 (USB4E01596)
Boxcar Smoothing: 0 (USB4E01596)
Correct for Electrical Dark: No (USB4E01596)
Strobe/Lamp Enabled: Yes (USB4E01596)
Correct for Detector Non-linearity: No (USB4E01596)
Correct for Stray Light: No (USB4E01596)
Number of Pixels in Processed Spectrum: 3648
>>>>>Begin Processed Spectral Data<<<<<
178.44	-528.571
178.66	-528.571
178.87	-528.571
179.09	-228.571
179.30	-846.154
179.52	0.000
179.74	-1800.000
179.95	1366.667
180.17	653.333
180.38	7600.000
180.60	0.000
180.82	500.000
181.03	-500.000
181.25	339.130
181.46	-148.387
181.68	266.667
181.89	10700.000
182.11	268.571
182.33	-204.444
182.54	-393.750
182.76	-4400.000
182.97	840.000
183.19	3150.000
183.40	251.724
183.62	-88.889
183.84	-255.556
184.05	508.696
184.27	275.000
184.48	1000.000
184.70	258.000
184.91	-553.333
185.13	244.444
185.34	-167.857
185.56	196.667
185.78	0.000
185.99	673.333
186.21	375.862
186.42	486.667
186.64	195.161
186.85	392.593
187.07	130.909
187.28	566.667
187.50	-240.000
187.72	1540.000
187.93	-8100.000
188.15	188.000
188.36	-323.529
188.58	-3900.000
188.79	272.727
189.01	325.000
189.22	1980.000
189.44	4350.000
189.65	416.667
189.87	862.500
190.09	-2020.000
190.30	687.500
190.52	-5300.000
190.73	225.000
190.95	292.857
191.16	177.778
191.38	700.000
191.59	257.143
191.81	216.667
192.02	253.191
192.24	652.941
192.45	-2120.000
192.67	340.000
192.88	516.667
193.10	364.000
193.31	480.000
193.53	-14300.000
193.74	113.415
193.96	579.167
194.18	390.323
194.39	-388.889
194.61	510.526
194.82	504.762
195.04	290.476
195.25	4450.000
195.47	224.390
195.68	280.851
195.90	1360.000
196.11	141.818
196.33	165.957
196.54	-3033.333
196.76	439.286
196.97	-2900.000
197.19	417.857
197.40	276.471
197.62	153.125
197.83	168.919
198.05	-621.053
198.26	337.143
198.48	241.667
198.69	209.302
198.91	198.039
199.12	-231.429
199.34	-1340.000
199.55	5900.000
199.77	2975.000
199.98	268.000
200.20	153.521
200.41	578.571
200.63	-388.889
200.84	188.235
201.06	746.154
201.27	262.162
201.49	1325.000
201.70	314.815
201.91	256.522
202.13	155.072
202.34	207.547
202.56	-1214.286
202.77	944.444
202.99	425.000
203.20	3400.000
203.42	1437.500
203.63	258.140
203.85	228.571
204.06	212.963
204.28	-370.000
204.49	262.857
204.71	146.154
204.92	0.000
205.14	-478.571
205.35	405.556
205.56	-2120.000
205.78	533.333
205.99	560.000
206.21	-332.258
206.42	322.581
206.64	342.857
206.85	1150.000
207.07	-661.538
207.28	557.143
207.50	-447.368
207.71	210.256
207.93	261.364
208.14	788.235
208.35	421.053
208.57	-7700.000
208.78	1176.923
209.00	527.778
209.21	-2000.000
209.43	358.621
209.64	226.471
209.86	1114.286
210.07	0.000
210.28	-488.235
210.50	175.510
210.71	235.088
210.93	314.286
211.14	-383.333
211.36	-232.258
211.57	-242.857
211.78	-230.435
212.00	0.000
212.21	246.512
212.43	-309.091
212.64	155.172
212.86	-675.000
213.07	-350.000
213.29	247.368
213.50	6500.000
213.71	164.151
213.93	1657.143
214.14	122.727
214.36	7300.000
214.57	411.538
214.78	693.750
215.00	2850.000
215.21	227.778
215.43	292.000
215.64	233.333
215.86	251.429
216.07	8700.000
216.28	384.000
216.50	-1314.286
216.71	-1920.000
216.93	214.894
217.14	378.125
217.35	359.259
217.57	275.000
217.78	1100.000
218.00	-620.000
218.21	236.842
218.42	-3000.000
218.64	711.765
218.85	-1066.667
219.07	685.714
219.28	1725.000
219.49	127.632
219.71	2166.667
219.92	352.778
220.14	329.167
220.35	460.000
220.56	235.897
220.78	258.824
220.99	-6500.000
221.21	442.857
221.42	491.667
221.63	300.000
221.85	222.581
222.06	207.143
222.28	281.818
222.49	-4600.000
222.70	0.000
222.92	522.222
223.13	150.000
223.34	-2525.000
223.56	171.053
223.77	125.843
223.99	274.359
224.20	111.905
224.41	305.405
224.63	352.778
224.84	191.379
225.05	217.857
225.27	131.429
225.48	234.783
225.69	1042.857
225.91	255.556
226.12	308.333
226.34	115.686
226.55	153.704
226.76	143.548
226.98	152.000
227.19	195.455
227.40	90.909
227.62	73.171
227.83	104.000
228.04	104.396
228.26	81.188
228.47	117.241
228.69	48.026
228.90	69.014
229.11	62.222
229.33	48.309
229.54	19.079
229.75	25.652
229.97	45.064
230.18	31.541
230.39	20.675
230.61	41.509
230.82	36.100
231.03	12.863
231.25	32.660
231.46	28.102
231.67	42.688
231.89	40.784
232.10	40.486
232.31	51.923
232.53	47.458
232.74	57.812
232.95	62.651
233.17	55.491
233.38	47.015
233.59	76.471
233.81	47.087
234.02	65.132
234.23	45.455
234.45	78.289
234.66	56.497
234.87	61.074
235.09	68.889
235.30	33.908
235.51	62.621
235.73	54.717
235.94	51.295
236.15	37.245
236.36	53.968
236.58	43.128
236.79	47.120
237.00	34.783
237.22	58.642
237.43	39.706
237.64	58.952
237.86	61.957
238.07	69.849
238.28	55.191
238.50	33.043
238.71	38.462
238.92	30.952
239.13	51.429
239.35	24.476
239.56	48.958
239.77	52.195
239.99	31.132
240.20	37.895
240.41	36.638
240.63	29.555
240.84	43.825
241.05	37.226
241.26	30.579
241.48	32.743
241.69	28.797
241.90	16.620
242.12	29.337
242.33	21.121
242.54	21.748
242.75	23.719
242.97	24.483
243.18	18.013
243.39	18.601
243.61	13.643
243.82	14.266
244.03	18.993
244.24	10.123
244.46	21.037
244.67	17.365
244.88	20.344
245.09	26.878
245.31	12.092
245.52	30.331
245.73	22.179
245.95	28.571
246.16	12.148
246.37	18.411
246.58	20.935
246.80	15.470
247.01	13.876
247.22	15.584
247.43	13.820
247.65	15.841
247.86	9.482
248.07	8.528
248.28	12.875
248.50	8.506
248.71	11.454
248.92	10.990
249.13	11.062
249.35	9.375
249.56	15.404
249.77	12.208
249.98	12.428
250.20	12.333
250.41	16.089
250.62	12.410
250.83	19.735
251.05	15.409
251.26	17.241
251.47	21.802
251.68	14.808
251.90	16.304
252.11	16.725
252.32	20.405
252.53	15.721
252.75	16.480
252.96	23.237
253.17	15.811
253.38	16.622
253.59	16.243
253.81	13.169
254.02	16.440
254.23	18.723
254.44	22.449
254.66	15.372
254.87	22.924
255.08	14.469
255.29	24.297
255.50	21.935
255.72	23.394
255.93	19.951
256.14	29.091
256.35	16.159
256.57	26.772
256.78	32.420
256.99	6.545
257.20	23.301
257.41	31.056
257.63	17.791
257.84	19.087
258.05	12.292
258.26	17.477
258.47	16.995
258.69	15.548
258.90	12.112
259.11	7.176
259.32	13.686
259.53	13.271
259.75	10.383
259.96	10.747
260.17	8.887
260.38	8.576
260.59	7.852
260.81	9.132
261.02	10.171
261.23	11.635
261.44	8.543
261.65	10.248
261.87	5.879
262.08	10.599
262.29	13.758
262.50	11.765
262.71	10.169
262.92	11.074
263.14	11.359
263.35	6.820
263.56	6.353
263.77	15.527
263.98	14.550
264.20	20.855
264.41	10.635
264.62	15.903
264.83	15.113
265.04	22.176
265.25	13.953
265.47	19.637
265.68	16.327
265.89	12.978
266.10	10.691
266.31	27.454
266.52	19.834
266.74	8.219
266.95	9.424
267.16	18.428
267.37	10.750
267.58	7.500
267.79	11.235
268.01	15.714
268.22	13.673
268.43	12.062
268.64	11.099
268.85	7.898
269.06	6.722
269.27	14.071
269.49	10.707
269.70	11.223
269.91	13.661
270.12	12.101
270.33	17.281
270.54	9.298
270.75	8.304
270.97	11.831
271.18	12.103
271.39	9.211
271.60	15.400
271.81	9.331
272.02	11.986
272.23	9.695
272.45	10.233
272.66	8.645
272.87	6.399
273.08	10.500
273.29	8.327
273.50	9.105
273.71	6.611
273.92	7.061
274.14	5.616
274.35	7.773
274.56	10.494
274.77	9.068
274.98	12.285
275.19	8.526
275.40	12.382
275.61	6.820
275.83	14.203
276.04	12.573
276.25	9.020
276.46	9.328
276.67	8.830
276.88	12.410
277.09	7.334
277.30	14.137
277.51	15.947
277.73	5.900
277.94	12.683
278.15	8.863
278.36	15.198
278.57	5.738
278.78	10.800
278.99	11.902
279.20	13.383
279.41	16.057
279.62	9.936
279.84	10.030
280.05	9.408
280.26	14.286
280.47	10.484
280.68	6.114
280.89	11.731
281.10	13.452
281.31	9.411
281.52	15.392
281.73	14.204
281.94	5.364
282.16	9.403
282.37	10.330
282.58	10.513
282.79	13.098
283.00	13.617
283.21	6.613
283.42	5.855
283.63	6.926
283.84	12.382
284.05	10.763
284.26	10.101
284.47	9.219
284.68	10.450
284.89	9.708
285.11	10.753
285.32	8.440
285.53	8.961
285.74	10.146
285.95	6.781
286.16	9.987
286.37	6.706
286.58	6.851
286.79	7.683
287.00	9.732
287.21	10.083
287.42	7.870
287.63	8.844
287.84	7.358
288.05	6.751
288.26	7.888
288.48	12.817
288.69	10.148
288.90	6.496
289.11	9.723
289.32	9.712
289.53	7.625
289.74	5.929
289.95	8.339
290.16	12.251
290.37	5.982
290.58	8.375
290.79	6.469
291.00	10.356
291.21	6.394
291.42	8.333
291.63	7.260
291.84	11.483
292.05	8.621
292.26	8.840
292.47	10.316
292.68	6.507
292.89	9.704
293.10	10.292
293.31	11.111
293.52	4.841
293.73	7.871
293.94	10.743
294.15	5.211
294.36	3.735
294.57	10.046
294.79	11.249
295.00	10.553
295.21	7.830
295.42	9.673
295.63	8.280
295.84	6.763
296.05	7.902
296.26	7.245
296.47	6.526
296.68	9.677
296.89	10.584
297.10	7.007
297.31	7.820
297.52	8.990
297.73	9.476
297.94	8.417
298.15	6.824
298.36	7.013
298.57	7.115
298.78	11.312
298.99	6.809
299.20	6.921
299.41	6.380
299.62	8.558
299.83	4.745
300.04	8.683
300.25	8.271
300.46	10.432
300.67	8.267
300.88	9.791
301.09	7.430
301.30	7.948
301.50	9.851
301.71	10.692
301.92	9.626
302.13	8.893
302.34	7.846
302.55	7.380
302.76	7.909
302.97	10.338
303.18	8.999
303.39	7.525
303.60	6.894
303.81	11.908
304.02	8.724
304.23	7.757
304.44	6.523
304.65	6.523
304.86	6.835
305.07	9.215
305.28	8.355
305.49	9.153
305.70	8.224
305.91	10.174
306.12	6.619
306.33	6.090
306.54	7.117
306.75	11.823
306.96	16.860
307.17	6.537
307.38	6.336
307.58	8.889
307.79	8.884
308.00	9.276
308.21	8.410
308.42	10.299
308.63	13.262
308.84	12.289
309.05	7.801
309.26	6.738
309.47	8.793
309.68	4.366
309.89	9.524
310.10	9.352
310.31	8.536
310.52	5.391
310.73	11.828
310.94	6.463
311.14	8.213
311.35	7.563
311.56	9.020
311.77	5.185
311.98	4.376
312.19	8.478
312.40	3.917
312.61	6.973
312.82	7.849
313.03	7.405
313.24	8.948
313.45	10.074
313.66	7.558
313.86	8.024
314.07	9.129
314.28	6.536
314.49	6.437
314.70	9.449
314.91	11.382
315.12	8.453
315.33	10.820
315.54	8.516
315.75	7.914
315.96	7.649
316.16	7.310
316.37	9.863
316.58	7.487
316.79	5.391
317.00	10.621
317.21	6.703
317.42	6.128
317.63	11.119
317.84	9.424
318.05	9.874
318.25	8.321
318.46	10.743
318.67	7.448
318.88	9.331
319.09	9.706
319.30	10.323
319.51	7.350
319.72	11.808
319.93	7.991
320.13	9.335
320.34	10.922
320.55	7.027
320.76	9.942
320.97	11.294
321.18	11.464
321.39	7.164
321.60	9.111
321.80	13.391
322.01	10.493
322.22	8.956
322.43	8.452
322.64	7.498
322.85	7.137
323.06	9.299
323.27	13.917
323.47	11.894
323.68	10.392
323.89	7.715
324.10	8.475
324.31	7.319
324.52	10.629
324.73	10.844
324.93	11.538
325.14	5.921
325.35	9.046
325.56	11.077
325.77	9.024
325.98	9.308
326.19	9.170
326.39	6.667
326.60	8.050
326.81	8.193
327.02	8.759
327.23	6.776
327.44	14.623
327.64	8.031
327.85	6.489
328.06	11.657
328.27	15.502
328.48	8.573
328.69	9.461
328.90	7.849
329.10	7.432
329.31	5.702
329.52	8.243
329.73	11.442
329.94	8.726
330.15	8.545
330.35	11.638
330.56	7.517
330.77	10.479
330.98	8.261
331.19	9.407
331.39	10.641
331.60	6.796
331.81	10.637
332.02	16.131
332.23	10.128
332.44	9.894
332.64	11.601
332.85	11.957
333.06	12.381
333.27	8.497
333.48	11.041
333.68	8.642
333.89	8.119
334.10	5.981
334.31	11.069
334.52	10.848
334.72	10.667
334.93	10.638
335.14	7.848
335.35	8.573
335.56	12.228
335.76	10.964
335.97	11.341
336.18	10.260
336.39	12.460
336.60	12.882
336.80	8.338
337.01	13.041
337.22	7.801
337.43	12.083
337.64	13.440
337.84	10.073
338.05	9.347
338.26	13.493
338.47	14.082
338.68	7.678
338.88	10.179
339.09	13.174
339.30	11.026
339.51	9.953
339.71	11.949
339.92	8.016
340.13	10.378
340.34	9.741
340.55	11.290
340.75	10.403
340.96	9.607
341.17	11.274
341.38	7.864
341.58	9.959
341.79	10.030
342.00	8.494
342.21	10.240
342.41	8.158
342.62	12.543
342.83	12.165
343.04	6.674
343.24	7.768
343.45	11.552
343.66	9.025
343.87	11.722
344.07	8.703
344.28	11.933
344.49	10.070
344.70	15.673
344.90	11.009
345.11	9.159
345.32	10.471
345.53	9.430
345.73	8.584
345.94	10.927
346.15	10.277
346.36	7.649
346.56	9.300
346.77	11.753
346.98	10.497
347.19	12.574
347.39	9.184
347.60	9.574
347.81	11.540
348.02	11.690
348.22	7.039
348.43	10.647
348.64	8.215
348.84	11.705
349.05	9.955
349.26	12.722
349.47	8.017
349.67	9.116
349.88	11.575
350.09	10.970
350.30	10.351
350.50	10.266
350.71	11.688
350.92	12.213
351.12	10.213
351.33	9.450
351.54	11.415
351.74	11.474
351.95	8.938
352.16	10.707
352.37	12.487
352.57	8.599
352.78	7.458
352.99	11.874
353.19	8.224
353.40	9.004
353.61	13.250
353.82	8.609
354.02	12.088
354.23	10.372
354.44	12.576
354.64	10.966
354.85	10.433
355.06	10.089
355.26	6.198
355.47	9.403
355.68	10.429
355.88	12.446
356.09	10.562
356.30	8.249
356.51	11.111
356.71	10.792
356.92	6.133
357.13	9.859
357.33	13.109
357.54	9.549
357.75	8.872
357.95	11.207
358.16	9.052
358.37	14.209
358.57	8.953
358.78	14.337
358.99	8.743
359.19	8.650
359.40	11.701
359.61	10.411
359.81	11.106
360.02	12.979
360.23	9.248
360.43	10.895
360.64	9.420
360.85	10.461
361.05	8.691
361.26	13.134
361.47	9.413
361.67	13.105
361.88	7.210
362.09	13.185
362.29	9.228
362.50	8.914
362.70	7.430
362.91	12.381
363.12	8.519
363.32	9.151
363.53	10.241
363.74	12.615
363.94	7.197
364.15	13.580
364.36	10.317
364.56	8.539
364.77	10.804
364.98	12.257
365.18	10.554
365.39	12.948
365.59	7.522
365.80	10.896
366.01	11.619
366.21	8.954
366.42	6.593
366.63	11.484
366.83	10.016
367.04	5.820
367.24	10.913
367.45	7.388
367.66	6.746
367.86	10.477
368.07	7.448
368.28	7.858
368.48	10.121
368.69	7.036
368.89	9.436
369.10	7.998
369.31	8.576
369.51	9.968
369.72	10.799
369.92	12.303
370.13	6.036
370.34	10.630
370.54	6.995
370.75	11.939
370.95	7.839
371.16	9.156
371.37	7.337
371.57	8.423
371.78	8.213
371.98	10.088
372.19	8.955
372.40	11.273
372.60	10.922
372.81	10.195
373.01	6.419
373.22	7.724
373.43	9.279
373.63	10.950
373.84	7.792
374.04	9.124
374.25	7.771
374.46	9.408
374.66	5.784
374.87	8.916
375.07	4.230
375.28	6.698
375.48	7.817
375.69	8.963
375.90	8.036
376.10	6.150
376.31	6.462
376.51	7.905
376.72	8.109
376.92	3.881
377.13	9.091
377.34	9.085
377.54	7.753
377.75	9.363
377.95	9.384
378.16	8.872
378.36	8.710
378.57	10.186
378.77	8.202
378.98	11.731
379.19	8.652
379.39	6.805
379.60	7.264
379.80	7.824
380.01	9.761
380.21	6.947
380.42	9.031
380.62	7.725
380.83	8.036
381.04	7.707
381.24	8.992
381.45	6.438
381.65	6.662
381.86	8.227
382.06	8.646
382.27	3.856
382.47	6.127
382.68	9.632
382.88	5.138
383.09	6.703
383.29	4.959
383.50	10.533
383.71	6.713
383.91	7.559
384.12	5.899
384.32	8.254
384.53	6.010
384.73	5.778
384.94	5.901
385.14	6.653
385.35	5.522
385.55	6.491
385.76	5.610
385.96	7.225
386.17	7.833
386.37	7.145
386.58	7.940
386.78	8.205
386.99	4.543
387.19	7.201
387.40	5.271
387.60	9.715
387.81	6.275
388.01	6.328
388.22	7.451
388.42	9.031
388.63	8.165
388.83	8.968
389.04	3.556
389.24	8.516
389.45	4.842
389.65	6.296
389.86	6.226
390.06	5.808
390.27	7.183
390.47	6.011
390.68	5.694
390.88	9.331
391.09	7.155
391.29	8.259
391.50	7.189
391.70	6.811
391.91	6.874
392.11	6.399
392.32	6.743
392.52	8.809
392.73	6.797
392.93	6.739
393.14	6.341
393.34	6.699
393.55	6.698
393.75	6.905
393.95	5.881
394.16	7.931
394.36	8.755
394.57	8.731
394.77	7.541
394.98	6.584
395.18	7.248
395.39	6.674
395.59	6.175
395.80	7.740
396.00	7.475
396.21	8.025
396.41	7.022
396.61	8.442
396.82	7.740
397.02	10.907
397.23	7.703
397.43	7.979
397.64	5.276
397.84	8.003
398.05	5.283
398.25	8.249
398.45	6.602
398.66	9.181
398.86	7.545
399.07	8.803
399.27	7.006
399.48	9.183
399.68	5.003
399.89	7.128
400.09	8.547
400.29	6.055
400.50	6.580
400.70	8.351
400.91	5.508
401.11	6.544
401.32	6.516
401.52	5.665
401.72	6.557
401.93	9.521
402.13	7.158
402.34	6.432
402.54	6.061
402.75	10.633
402.95	5.359
403.15	9.448
403.36	6.090
403.56	5.663
403.77	5.744
403.97	6.205
404.17	6.144
404.38	8.275
404.58	6.531
404.79	7.444
404.99	6.126
405.19	7.092
405.40	5.205
405.60	8.386
405.81	6.226
406.01	6.013
406.21	7.086
406.42	7.015
406.62	6.622
406.83	6.560
407.03	7.954
407.23	5.336
407.44	6.784
407.64	8.524
407.85	7.528
408.05	6.350
408.25	6.067
408.46	7.707
408.66	7.729
408.87	5.813
409.07	6.653
409.27	5.605
409.48	6.118
409.68	6.570
409.88	5.001
410.09	8.029
410.29	7.452
410.50	7.797
410.70	4.667
410.90	6.474
411.11	4.850
411.31	6.280
411.51	7.910
411.72	8.792
411.92	5.073
412.12	6.294
412.33	4.712
412.53	6.479
412.74	4.509
412.94	5.906
413.14	6.123
413.35	6.209
413.55	5.943
413.75	8.445
413.96	4.647
414.16	6.048
414.36	6.600
414.57	6.665
414.77	5.913
414.97	5.814
415.18	6.531
415.38	7.546
415.58	6.214
415.79	5.814
415.99	5.977
416.19	6.793
416.40	6.220
416.60	5.901
416.80	5.771
417.01	7.563
417.21	4.783
417.41	8.639
417.62	6.756
417.82	7.391
418.02	5.054
418.23	6.540
418.43	6.500
418.63	7.322
418.84	8.017
419.04	6.628
419.24	7.598
419.45	8.390
419.65	7.971
419.85	8.546
420.06	8.192
420.26	8.961
420.46	7.670
420.67	9.330
420.87	8.293
421.07	8.862
421.28	8.268
421.48	9.281
421.68	8.715
421.88	9.964
422.09	8.837
422.29	9.085
422.49	7.497
422.70	9.381
422.90	8.129
423.10	9.334
423.31	7.797
423.51	9.320
423.71	8.006
423.91	10.041
424.12	8.976
424.32	8.651
424.52	8.212
424.73	9.353
424.93	8.210
425.13	8.554
425.33	8.060
425.54	9.709
425.74	8.608
425.94	9.044
426.15	9.404
426.35	7.816
426.55	8.577
426.75	9.224
426.96	9.342
427.16	7.881
427.36	7.931
427.57	9.470
427.77	7.783
427.97	8.749
428.17	8.633
428.38	8.606
428.58	5.838
428.78	7.472
428.98	5.777
429.19	6.451
429.39	5.916
429.59	8.658
429.79	5.211
430.00	5.164
430.20	4.596
430.40	6.451
430.60	6.291
430.81	7.201
431.01	5.186
431.21	6.800
431.41	5.182
431.62	6.453
431.82	6.967
432.02	8.266
432.22	5.616
432.43	5.415
432.63	4.787
432.83	7.777
433.03	6.139
433.24	6.255
433.44	7.252
433.64	7.478
433.84	6.025
434.05	7.772
434.25	6.327
434.45	7.951
434.65	7.887
434.85	8.811
435.06	7.719
435.26	7.251
435.46	6.757
435.66	7.396
435.87	6.453
436.07	7.256
436.27	7.532
436.47	5.888
436.67	5.756
436.88	7.835
437.08	6.736
437.28	7.658
437.48	6.846
437.69	7.887
437.89	7.607
438.09	8.731
438.29	5.688
438.49	7.766
438.70	7.151
438.90	6.569
439.10	6.829
439.30	8.011
439.50	5.932
439.71	7.812
439.91	7.382
440.11	8.837
440.31	7.919
440.51	7.274
440.72	6.442
440.92	8.209
441.12	7.643
441.32	8.825
441.52	8.406
441.72	8.783
441.93	8.021
442.13	9.023
442.33	7.643
442.53	9.428
442.73	7.208
442.94	7.889
443.14	7.212
443.34	9.486
443.54	8.492
443.74	8.502
443.94	7.646
444.15	7.276
444.35	6.081
444.55	8.235
444.75	6.864
444.95	7.330
445.15	7.033
445.36	7.938
445.56	5.707
445.76	8.585
445.96	7.154
446.16	7.293
446.36	6.359
446.57	8.762
446.77	6.391
446.97	8.480
447.17	8.544
447.37	8.640
447.57	8.316
447.77	9.054
447.98	8.083
448.18	9.299
448.38	7.644
448.58	9.048
448.78	8.299
448.98	7.714
449.18	6.947
449.39	8.020
449.59	6.759
449.79	6.965
449.99	6.493
450.19	7.928
450.39	6.853
450.59	7.260
450.79	6.493
451.00	8.250
451.20	7.121
451.40	6.757
451.60	5.722
451.80	7.573
452.00	6.551
452.20	6.875
452.40	6.546
452.61	6.229
452.81	7.102
453.01	7.321
453.21	5.664
453.41	7.410
453.61	6.793
453.81	6.468
454.01	6.635
454.21	7.523
454.42	7.957
454.62	7.140
454.82	6.099
455.02	5.974
455.22	5.348
455.42	6.079
455.62	5.102
455.82	7.643
456.02	6.395
456.23	6.914
456.43	4.901
456.63	7.370
456.83	5.070
457.03	7.337
457.23	6.446
457.43	6.014
457.63	5.959
457.83	6.913
458.03	5.588
458.23	6.847
458.43	5.527
458.64	6.943
458.84	5.985
459.04	7.145
459.24	6.406
459.44	7.415
459.64	7.310
459.84	7.644
460.04	7.433
460.24	8.075
460.44	7.743
460.64	7.894
460.84	6.919
461.04	8.943
461.24	8.343
461.45	9.339
461.65	8.568
461.85	8.660
462.05	7.990
462.25	8.763
462.45	8.891
462.65	8.473
462.85	5.786
463.05	7.397
463.25	5.263
463.45	7.614
463.65	5.731
463.85	7.063
464.05	6.031
464.25	6.228
464.45	7.172
464.65	6.117
464.85	5.488
465.05	6.651
465.26	6.054
465.46	7.172
465.66	6.780
465.86	7.232
466.06	5.853
466.26	7.311
466.46	4.630
466.66	7.264
466.86	6.156
467.06	5.624
467.26	6.274
467.46	7.201
467.66	6.538
467.86	7.457
468.06	6.119
468.26	6.390
468.46	6.750
468.66	6.990
468.86	5.058
469.06	7.210
469.26	4.174
469.46	6.868
469.66	5.027
469.86	7.554
470.06	5.886
470.26	8.012
470.46	4.790
470.66	7.682
470.86	5.244
471.06	5.993
471.26	4.385
471.46	6.090
471.66	6.018
471.86	6.331
472.06	5.819
472.26	7.579
472.46	8.314
472.66	7.477
472.86	5.845
473.06	6.811
473.26	6.105
473.46	6.721
473.66	5.749
