SpectraSuite Data File
++++++++++++++++++++++++++++++++++++
Date: Sun Sep 22 03:01:54 EST 2019
User: sgrac
Dark Spectrum Present: Yes
Reference Spectrum Present: Yes
Number of Sampled Component Spectra: 1
Spectrometers: USB4E01596
Integration Time (usec): 100000 (USB4E01596)
Spectra Averaged: 1 (USB4E01596)
Boxcar Smoothing: 0 (USB4E01596)
Correct for Electrical Dark: No (USB4E01596)
Strobe/Lamp Enabled: Yes (USB4E01596)
Correct for Detector Non-linearity: No (USB4E01596)
Correct for Stray Light: No (USB4E01596)
Number of Pixels in Processed Spectrum: 3648
>>>>>Begin Processed Spectral Data<<<<<
178.44	471.429
178.66	471.429
178.87	471.429
179.09	-16.667
179.30	-394.444
179.52	125.806
179.74	8000.000
179.95	900.000
180.17	7900.000
180.38	174.074
180.60	-593.750
180.82	2175.000
181.03	-133.333
181.25	321.739
181.46	-121.429
181.68	-295.000
181.89	335.294
182.11	600.000
182.33	942.857
182.54	213.793
182.76	281.818
182.97	-407.143
183.19	274.359
183.40	-328.571
183.62	77.778
183.84	134.286
184.05	8100.000
184.27	170.000
184.48	246.809
184.70	339.286
184.91	600.000
185.13	-5200.000
185.34	707.143
185.56	-471.429
185.78	280.000
185.99	279.412
186.21	171.739
186.42	1150.000
186.64	80.263
186.85	-287.500
187.07	325.000
187.28	-750.000
187.50	1185.714
187.72	872.727
187.93	-362.500
188.15	336.364
188.36	237.838
188.58	116.923
188.79	300.000
189.01	246.154
189.22	-890.000
189.44	145.205
189.65	2900.000
189.87	1240.000
190.09	0.000
190.30	808.333
190.52	-334.615
190.73	465.217
190.95	235.714
191.16	500.000
191.38	-538.462
191.59	5400.000
191.81	140.351
192.02	460.000
192.24	-3550.000
192.45	-560.000
192.67	152.083
192.88	166.667
193.10	4000.000
193.31	-485.714
193.53	820.000
193.74	120.513
193.96	128.571
194.18	94.737
194.39	-1183.333
194.61	566.667
194.82	156.364
195.04	800.000
195.25	570.000
195.47	-376.471
195.68	-210.714
195.90	165.625
196.11	423.077
196.33	255.556
196.54	330.303
196.76	816.667
196.97	-312.500
197.19	607.143
197.40	263.636
197.62	203.030
197.83	-1150.000
198.05	1333.333
198.26	153.731
198.48	566.667
198.69	-118.182
198.91	-2600.000
199.12	205.714
199.34	159.259
199.55	468.421
199.77	-152.632
199.98	-515.385
200.20	246.667
200.41	250.000
200.63	191.837
200.84	-712.500
201.06	920.000
201.27	337.500
201.49	-742.857
201.70	0.000
201.91	345.000
202.13	162.500
202.34	51.852
202.56	727.273
202.77	151.724
202.99	-600.000
203.20	-588.889
203.42	127.632
203.63	191.667
203.85	196.226
204.06	369.231
204.28	393.333
204.49	-5000.000
204.71	313.514
204.92	296.667
205.14	286.364
205.35	361.905
205.56	181.633
205.78	1030.000
205.99	2400.000
206.21	476.471
206.42	205.000
206.64	1133.333
206.85	168.750
207.07	141.667
207.28	165.574
207.50	246.429
207.71	264.000
207.93	265.217
208.14	-560.000
208.35	-1766.667
208.57	700.000
208.78	171.739
209.00	103.030
209.21	306.061
209.43	108.696
209.64	987.500
209.86	151.515
210.07	446.154
210.28	641.667
210.50	260.000
210.71	191.489
210.93	468.750
211.14	-6900.000
211.36	243.333
211.57	-10500.000
211.78	-1975.000
212.00	368.421
212.21	730.000
212.43	151.064
212.64	472.727
212.86	279.310
213.07	-2450.000
213.29	131.250
213.50	-373.684
213.71	137.705
213.93	810.000
214.14	564.286
214.36	723.077
214.57	440.909
214.78	131.169
215.00	132.857
215.21	416.667
215.43	448.000
215.64	-5800.000
215.86	750.000
216.07	-630.769
216.28	240.000
216.50	-161.538
216.71	1760.000
216.93	476.471
217.14	-266.667
217.35	114.062
217.57	473.333
217.78	364.706
218.00	2200.000
218.21	188.679
218.42	1344.444
218.64	1766.667
218.85	433.333
219.07	-466.667
219.28	-303.704
219.49	274.074
219.71	293.333
219.92	307.692
220.14	252.174
220.35	2500.000
220.56	91.228
220.78	210.000
220.99	-733.333
221.21	0.000
221.42	255.172
221.63	1009.091
221.85	213.559
222.06	163.265
222.28	231.034
222.49	253.846
222.70	860.000
222.92	106.000
223.13	155.000
223.34	-383.333
223.56	87.013
223.77	134.043
223.99	433.333
224.20	143.902
224.41	165.909
224.63	146.667
224.84	279.310
225.05	149.206
225.27	85.507
225.48	156.000
225.69	147.619
225.91	100.000
226.12	153.521
226.34	28.155
226.55	104.348
226.76	64.912
226.98	88.158
227.19	159.677
227.40	90.625
227.62	114.000
227.83	67.568
228.04	62.887
228.26	71.901
228.47	90.244
228.69	57.988
228.90	57.647
229.11	52.301
229.33	20.168
229.54	29.329
229.75	17.910
229.97	37.237
230.18	18.283
230.39	22.424
230.61	14.019
230.82	37.574
231.03	14.110
231.25	27.526
231.46	29.773
231.67	25.974
231.89	27.407
232.10	33.209
232.31	19.068
232.53	11.966
232.74	16.250
232.95	33.990
233.17	34.766
233.38	27.624
233.59	36.410
233.81	19.500
234.02	39.524
234.23	19.725
234.45	42.246
234.66	34.112
234.87	41.553
235.09	49.749
235.30	29.756
235.51	40.948
235.73	27.308
235.94	27.861
236.15	45.783
236.36	32.714
236.58	25.180
236.79	18.605
237.00	48.763
237.22	36.928
237.43	19.027
237.64	18.142
237.86	36.726
238.07	45.775
238.28	37.327
238.50	39.350
238.71	30.055
238.92	28.571
239.13	21.514
239.35	43.860
239.56	39.916
239.77	39.015
239.99	22.593
240.20	30.523
240.41	17.544
240.63	23.964
240.84	32.143
241.05	16.012
241.26	16.286
241.48	20.192
241.69	18.594
241.90	11.876
242.12	14.316
242.33	9.783
242.54	13.839
242.75	8.802
242.97	17.906
243.18	10.928
243.39	8.161
243.61	14.187
243.82	12.679
244.03	9.707
244.24	10.046
244.46	11.508
244.67	12.195
244.88	10.961
245.09	10.815
245.31	13.880
245.52	9.907
245.73	16.038
245.95	22.379
246.16	18.380
246.37	10.577
246.58	12.744
246.80	11.218
247.01	8.409
247.22	6.186
247.43	7.735
247.65	6.086
247.86	6.512
248.07	9.103
248.28	4.569
248.50	6.215
248.71	5.868
248.92	2.406
249.13	9.073
249.35	7.601
249.56	7.359
249.77	7.250
249.98	5.510
250.20	4.474
250.41	9.421
250.62	10.616
250.83	9.653
251.05	15.164
251.26	10.815
251.47	19.704
251.68	6.579
251.90	8.646
252.11	13.876
252.32	15.156
252.53	9.838
252.75	10.302
252.96	8.912
253.17	8.434
253.38	9.394
253.59	6.848
253.81	7.712
254.02	9.360
254.23	12.665
254.44	14.232
254.66	7.983
254.87	10.046
255.08	18.979
255.29	15.356
255.50	18.401
255.72	14.567
255.93	10.967
256.14	8.413
256.35	8.806
256.57	18.273
256.78	2.132
256.99	8.491
257.20	17.357
257.41	9.747
257.63	7.573
257.84	9.424
258.05	18.140
258.26	12.422
258.47	3.704
258.69	8.345
258.90	7.784
259.11	9.602
259.32	6.972
259.53	7.004
259.75	13.872
259.96	3.395
260.17	5.775
260.38	5.932
260.59	7.366
260.81	4.752
261.02	6.767
261.23	5.114
261.44	6.388
261.65	4.013
261.87	3.686
262.08	2.074
262.29	5.251
262.50	5.286
262.71	7.448
262.92	7.132
263.14	4.007
263.35	6.416
263.56	4.193
263.77	9.691
263.98	12.258
264.20	10.503
264.41	13.632
264.62	13.048
264.83	7.684
265.04	9.584
265.25	8.816
265.47	5.874
265.68	6.851
265.89	2.522
266.10	6.686
266.31	13.300
266.52	13.555
266.74	4.751
266.95	7.889
267.16	10.064
267.37	5.833
267.58	9.847
267.79	8.364
268.01	6.446
268.22	7.847
268.43	6.842
268.64	4.383
268.85	6.596
269.06	4.508
269.27	8.651
269.49	5.166
269.70	6.077
269.91	8.569
270.12	7.088
270.33	7.513
270.54	7.727
270.75	12.441
270.97	7.733
271.18	7.666
271.39	5.285
271.60	7.404
271.81	5.284
272.02	4.136
272.23	5.466
272.45	7.720
272.66	3.455
272.87	6.215
273.08	4.371
273.29	5.677
273.50	5.644
273.71	4.619
273.92	1.697
274.14	6.757
274.35	3.732
274.56	6.362
274.77	5.982
274.98	3.068
275.19	3.466
275.40	4.510
275.61	6.159
275.83	6.986
276.04	6.395
276.25	5.494
276.46	4.900
276.67	8.000
276.88	3.106
277.09	6.131
277.30	6.219
277.51	6.854
277.73	6.672
277.94	4.020
278.15	3.817
278.36	6.218
278.57	1.689
278.78	5.523
278.99	7.569
279.20	9.365
279.41	10.410
279.62	3.388
279.84	5.467
280.05	7.744
280.26	9.976
280.47	3.099
280.68	11.840
280.89	6.534
281.10	5.868
281.31	7.836
281.52	8.455
281.73	4.209
281.94	5.152
282.16	4.535
282.37	7.640
282.58	4.184
282.79	4.653
283.00	6.242
283.21	7.056
283.42	5.491
283.63	8.758
283.84	5.818
284.05	5.583
284.26	5.863
284.47	2.117
284.68	6.431
284.89	8.424
285.11	4.877
285.32	4.732
285.53	6.068
285.74	5.483
285.95	3.710
286.16	3.850
286.37	6.976
286.58	3.092
286.79	3.411
287.00	5.337
287.21	1.836
287.42	2.818
287.63	2.309
287.84	1.578
288.05	6.543
288.26	5.493
288.48	6.887
288.69	5.381
288.90	2.907
289.11	4.172
289.32	5.682
289.53	5.612
289.74	6.195
289.95	6.175
290.16	2.791
290.37	6.615
290.58	6.636
290.79	4.135
291.00	1.749
291.21	2.343
291.42	5.480
291.63	7.703
291.84	4.686
292.05	4.698
292.26	5.420
292.47	3.860
292.68	6.761
292.89	3.895
293.10	4.186
293.31	5.232
293.52	7.041
293.73	4.610
293.94	4.510
294.15	4.812
294.36	5.503
294.57	9.140
294.79	3.329
295.00	2.699
295.21	5.193
295.42	6.459
295.63	4.333
295.84	4.276
296.05	5.263
296.26	2.808
296.47	3.493
296.68	2.123
296.89	5.462
297.10	5.380
297.31	6.028
297.52	3.576
297.73	3.826
297.94	2.871
298.15	3.150
298.36	2.707
298.57	4.089
298.78	4.487
298.99	2.979
299.20	4.040
299.41	3.564
299.62	2.014
299.83	4.220
300.04	3.510
300.25	3.913
300.46	3.333
300.67	5.090
300.88	3.535
301.09	3.048
301.30	4.362
301.50	3.027
301.71	7.791
301.92	7.038
302.13	3.958
302.34	5.764
302.55	4.613
302.76	5.098
302.97	3.320
303.18	6.555
303.39	7.860
303.60	5.339
303.81	1.789
304.02	5.364
304.23	3.454
304.44	3.899
304.65	4.658
304.86	6.228
305.07	4.684
305.28	5.510
305.49	6.396
305.70	5.254
305.91	7.070
306.12	4.311
306.33	2.950
306.54	5.092
306.75	4.208
306.96	7.806
307.17	3.471
307.38	5.169
307.58	4.874
307.79	4.859
308.00	5.562
308.21	8.519
308.42	4.927
308.63	4.594
308.84	5.306
309.05	5.679
309.26	4.226
309.47	4.205
309.68	4.933
309.89	6.141
310.10	4.439
310.31	4.579
310.52	5.120
310.73	5.441
310.94	3.913
311.14	5.162
311.35	4.198
311.56	6.512
311.77	6.903
311.98	1.864
312.19	5.650
312.40	4.305
312.61	3.759
312.82	3.097
313.03	6.467
313.24	5.761
313.45	4.739
313.66	5.548
313.86	3.128
314.07	5.109
314.28	5.080
314.49	6.793
314.70	4.687
314.91	6.566
315.12	2.801
315.33	4.505
315.54	6.998
315.75	5.427
315.96	3.664
316.16	3.538
316.37	7.016
316.58	3.210
316.79	5.387
317.00	4.968
317.21	6.703
317.42	7.587
317.63	5.642
317.84	5.515
318.05	5.646
318.25	5.581
318.46	5.204
318.67	5.040
318.88	3.320
319.09	5.145
319.30	5.308
319.51	8.387
319.72	4.479
319.93	4.778
320.13	5.287
320.34	7.247
320.55	5.906
320.76	6.428
320.97	2.862
321.18	7.548
321.39	7.452
321.60	3.595
321.80	4.703
322.01	5.991
322.22	5.655
322.43	5.893
322.64	6.698
322.85	6.737
323.06	7.804
323.27	5.315
323.47	5.795
323.68	6.989
323.89	5.011
324.10	7.386
324.31	4.245
324.52	7.345
324.73	6.164
324.93	6.225
325.14	6.501
325.35	6.745
325.56	6.062
325.77	8.382
325.98	4.227
326.19	2.211
326.39	6.391
326.60	8.047
326.81	4.171
327.02	3.377
327.23	4.651
327.44	4.470
327.64	4.241
327.85	4.215
328.06	5.300
328.27	7.227
328.48	6.370
328.69	2.963
328.90	5.940
329.10	3.658
329.31	4.915
329.52	4.749
329.73	6.368
329.94	7.197
330.15	6.142
330.35	4.604
330.56	5.982
330.77	6.243
330.98	6.692
331.19	6.633
331.39	4.701
331.60	6.233
331.81	6.439
332.02	6.176
332.23	5.388
332.44	5.639
332.64	4.058
332.85	6.280
333.06	7.527
333.27	3.912
333.48	6.626
333.68	7.180
333.89	5.247
334.10	4.102
334.31	9.913
334.52	6.643
334.72	6.184
334.93	6.331
335.14	6.440
335.35	6.670
335.56	6.574
335.76	4.268
335.97	5.258
336.18	7.119
336.39	7.111
336.60	7.164
336.80	5.804
337.01	5.288
337.22	5.744
337.43	6.941
337.64	6.729
337.84	5.400
338.05	6.181
338.26	7.793
338.47	7.735
338.68	7.321
338.88	8.121
339.09	4.932
339.30	4.354
339.51	6.707
339.71	6.401
339.92	6.848
340.13	6.548
340.34	7.211
340.55	4.946
340.75	7.163
340.96	3.191
341.17	7.389
341.38	3.951
341.58	7.983
341.79	5.821
342.00	7.376
342.21	6.747
342.41	4.378
342.62	5.921
342.83	5.877
343.04	4.184
343.24	7.794
343.45	6.180
343.66	7.476
343.87	7.577
344.07	6.108
344.28	3.526
344.49	6.223
344.70	8.515
344.90	6.315
345.11	5.148
345.32	6.697
345.53	6.149
345.73	8.340
345.94	7.948
346.15	6.120
346.36	8.036
346.56	4.939
346.77	7.575
346.98	6.213
347.19	8.051
347.39	3.304
347.60	6.273
347.81	6.762
348.02	8.144
348.22	4.218
348.43	6.574
348.64	4.170
348.84	5.737
349.05	5.011
349.26	8.907
349.47	7.128
349.67	4.433
349.88	7.428
350.09	5.439
350.30	8.105
350.50	5.894
350.71	4.907
350.92	6.095
351.12	7.071
351.33	7.721
351.54	8.119
351.74	5.252
351.95	5.820
352.16	6.023
352.37	6.669
352.57	5.669
352.78	6.592
352.99	6.997
353.19	6.824
353.40	4.474
353.61	7.739
353.82	8.879
354.02	6.750
354.23	5.802
354.44	6.991
354.64	6.510
354.85	6.648
355.06	6.680
355.26	5.486
355.47	7.115
355.68	8.340
355.88	7.280
356.09	6.834
356.30	4.360
356.51	5.410
356.71	6.113
356.92	3.560
357.13	7.659
357.33	7.512
357.54	5.663
357.75	3.753
357.95	6.747
358.16	5.231
358.37	7.987
358.57	5.058
358.78	7.618
358.99	6.425
359.19	6.751
359.40	5.272
359.61	6.451
359.81	8.243
360.02	7.453
360.23	5.443
360.43	5.511
360.64	5.234
360.85	7.460
361.05	4.005
361.26	7.880
361.47	6.631
361.67	7.538
361.88	5.421
362.09	6.732
362.29	5.356
362.50	4.953
362.70	4.035
362.91	6.827
363.12	5.344
363.32	6.667
363.53	6.636
363.74	6.567
363.94	5.639
364.15	7.708
364.36	6.040
364.56	4.931
364.77	7.098
364.98	9.003
365.18	5.523
365.39	6.397
365.59	3.714
365.80	6.387
366.01	8.440
366.21	5.893
366.42	6.407
366.63	7.068
366.83	5.587
367.04	5.486
367.24	6.092
367.45	4.650
367.66	4.363
367.86	5.733
368.07	6.246
368.28	5.713
368.48	4.726
368.69	5.578
368.89	5.452
369.10	5.006
369.31	4.634
369.51	5.899
369.72	8.693
369.92	6.934
370.13	5.350
370.34	6.333
370.54	4.078
370.75	6.861
370.95	3.790
371.16	5.226
371.37	4.560
371.57	4.178
371.78	5.109
371.98	6.025
372.19	5.798
372.40	5.756
372.60	5.929
372.81	5.863
373.01	4.443
373.22	4.981
373.43	5.163
373.63	5.222
373.84	4.805
374.04	4.891
374.25	6.655
374.46	5.545
374.66	5.932
374.87	6.177
375.07	4.140
375.28	4.683
375.48	4.652
375.69	6.663
375.90	3.439
376.10	4.000
376.31	4.307
376.51	4.834
376.72	4.035
376.92	4.141
377.13	5.542
377.34	6.140
377.54	3.872
377.75	6.206
377.95	4.198
378.16	5.592
378.36	6.046
378.57	5.082
378.77	4.841
378.98	4.755
379.19	4.802
379.39	5.179
379.60	4.248
379.80	4.564
380.01	5.141
380.21	4.116
380.42	4.644
380.62	4.924
380.83	4.811
381.04	3.945
381.24	6.007
381.45	5.525
381.65	3.313
381.86	6.190
382.06	6.020
382.27	3.140
382.47	5.203
382.68	5.764
382.88	4.624
383.09	3.391
383.29	3.761
383.50	6.315
383.71	4.508
383.91	4.633
384.12	4.027
384.32	5.747
384.53	4.157
384.73	3.357
384.94	3.281
385.14	4.039
385.35	3.833
385.55	2.720
385.76	4.603
385.96	3.673
386.17	4.208
386.37	4.465
386.58	3.729
386.78	4.290
386.99	3.149
387.19	4.556
387.40	2.956
387.60	4.532
387.81	3.578
388.01	4.091
388.22	4.151
388.42	4.362
388.63	6.035
388.83	4.885
389.04	3.020
389.24	3.344
389.45	3.639
389.65	3.959
389.86	3.588
390.06	4.294
390.27	3.532
390.47	4.530
390.68	2.791
390.88	4.241
391.09	4.132
391.29	5.702
391.50	3.381
391.70	4.379
391.91	4.136
392.11	3.738
392.32	3.836
392.52	3.864
392.73	3.063
392.93	4.764
393.14	3.269
393.34	3.130
393.55	4.088
393.75	4.576
393.95	4.280
394.16	3.769
394.36	4.440
394.57	4.998
394.77	3.664
394.98	3.568
395.18	4.199
395.39	3.920
395.59	4.075
395.80	3.404
396.00	3.471
396.21	4.541
396.41	3.812
396.61	4.257
396.82	3.757
397.02	4.164
397.23	5.014
397.43	4.010
397.64	3.415
397.84	4.989
398.05	2.478
398.25	4.543
398.45	3.383
398.66	3.937
398.86	4.339
399.07	5.287
399.27	3.262
399.48	4.186
399.68	4.282
399.89	3.125
400.09	3.321
400.29	3.152
400.50	3.005
400.70	3.901
400.91	4.410
401.11	3.905
401.32	3.174
401.52	2.895
401.72	3.488
401.93	3.668
402.13	3.483
402.34	3.425
402.54	2.863
402.75	5.317
402.95	3.958
403.15	4.379
403.36	3.426
403.56	3.664
403.77	3.589
403.97	3.095
404.17	2.938
404.38	3.820
404.58	2.738
404.79	3.185
404.99	4.456
405.19	3.299
405.40	3.435
405.60	3.822
405.81	2.997
406.01	4.058
406.21	2.372
406.42	3.193
406.62	3.173
406.83	3.145
407.03	3.316
407.23	2.482
407.44	3.506
407.64	2.922
407.85	2.081
408.05	3.123
408.25	3.058
408.46	4.437
408.66	3.176
408.87	2.514
409.07	2.936
409.27	4.114
409.48	3.231
409.68	3.488
409.88	3.560
410.09	2.864
410.29	3.114
410.50	4.260
410.70	3.603
410.90	2.299
411.11	2.594
411.31	2.988
411.51	3.679
411.72	3.800
411.92	2.717
412.12	2.655
412.33	3.328
412.53	2.722
412.74	1.735
412.94	2.963
413.14	2.708
413.35	3.713
413.55	3.637
413.75	4.467
413.96	2.516
414.16	2.775
414.36	2.710
414.57	3.632
414.77	2.743
414.97	3.480
415.18	2.529
415.38	3.279
415.58	2.774
415.79	2.862
415.99	3.620
416.19	2.927
416.40	3.587
416.60	2.361
416.80	3.118
417.01	2.413
417.21	2.487
417.41	4.533
417.62	3.059
417.82	3.688
418.02	2.985
418.23	3.657
418.43	2.628
418.63	3.058
418.84	3.202
419.04	2.793
419.24	3.661
419.45	4.139
419.65	3.881
419.85	3.414
420.06	3.180
420.26	3.698
420.46	3.086
420.67	4.742
420.87	3.638
421.07	4.504
421.28	3.202
421.48	3.892
421.68	3.631
421.88	4.399
422.09	4.017
422.29	3.625
422.49	3.348
422.70	3.934
422.90	3.631
423.10	3.849
423.31	3.786
423.51	4.341
423.71	3.046
423.91	3.697
424.12	3.745
424.32	3.940
424.52	3.984
424.73	3.802
424.93	3.567
425.13	3.923
425.33	3.311
425.54	4.473
425.74	3.391
425.94	4.367
426.15	3.637
426.35	3.429
426.55	3.648
426.75	3.634
426.96	3.227
427.16	3.763
427.36	3.927
427.57	3.846
427.77	3.088
427.97	3.492
428.17	3.793
428.38	3.434
428.58	2.970
428.78	2.827
428.98	2.480
429.19	2.996
429.39	2.383
429.59	2.809
429.79	2.106
430.00	2.848
430.20	2.933
430.40	3.230
430.60	2.601
430.81	3.450
431.01	2.083
431.21	2.934
431.41	2.981
431.62	2.847
431.82	2.448
432.02	3.653
432.22	2.007
432.43	2.637
432.63	2.406
432.83	3.284
433.03	2.572
433.24	2.576
433.44	2.844
433.64	2.804
433.84	2.875
434.05	2.870
434.25	1.973
434.45	3.162
434.65	3.407
434.85	3.485
435.06	3.335
435.26	3.041
435.46	2.955
435.66	3.479
435.87	2.487
436.07	2.682
436.27	2.764
436.47	2.818
436.67	2.299
436.88	3.233
437.08	2.730
437.28	2.937
437.48	2.347
437.69	2.933
437.89	3.201
438.09	3.400
438.29	2.501
438.49	3.398
438.70	3.422
438.90	2.316
439.10	2.628
439.30	3.052
439.50	2.165
439.71	3.074
439.91	2.725
440.11	3.647
440.31	2.922
440.51	3.018
440.72	2.816
440.92	3.521
441.12	3.169
441.32	3.874
441.52	3.541
441.72	3.128
441.93	3.451
442.13	4.220
442.33	2.828
442.53	4.219
442.73	2.631
442.94	3.801
443.14	3.029
443.34	4.448
443.54	3.323
443.74	3.402
443.94	2.872
444.15	2.785
444.35	2.340
444.55	3.486
444.75	2.984
444.95	3.396
445.15	3.038
445.36	2.746
445.56	2.589
445.76	3.359
445.96	3.393
446.16	2.758
446.36	2.558
446.57	3.355
446.77	2.294
446.97	3.503
447.17	3.727
447.37	3.531
447.57	3.369
447.77	3.175
447.98	3.180
448.18	3.816
448.38	2.947
448.58	3.857
448.78	3.406
448.98	3.175
449.18	3.575
449.39	3.123
449.59	2.924
449.79	3.023
449.99	2.253
450.19	3.319
450.39	3.158
450.59	2.979
450.79	2.811
451.00	3.856
451.20	3.634
451.40	2.680
451.60	2.963
451.80	3.333
452.00	2.082
452.20	2.705
452.40	3.117
452.61	3.082
452.81	2.095
453.01	3.219
453.21	2.673
453.41	3.331
453.61	2.381
453.81	2.570
454.01	2.318
454.21	2.953
454.42	3.315
454.62	2.714
454.82	3.110
455.02	2.309
455.22	1.740
455.42	2.507
455.62	1.940
455.82	2.586
456.02	2.865
456.23	2.736
456.43	2.884
456.63	2.669
456.83	1.989
457.03	2.837
457.23	2.618
457.43	2.569
457.63	2.516
457.83	1.897
458.03	2.134
458.23	2.552
458.43	1.968
458.64	2.466
458.84	2.375
459.04	2.655
459.24	3.357
459.44	2.545
459.64	2.633
459.84	3.036
460.04	2.651
460.24	3.368
460.44	3.066
460.64	3.589
460.84	2.733
461.04	4.099
461.24	3.615
461.45	4.357
461.65	4.213
461.85	3.668
462.05	2.670
462.25	3.250
462.45	3.454
462.65	3.236
462.85	1.861
463.05	3.181
463.25	2.269
463.45	2.949
463.65	2.753
463.85	3.128
464.05	3.159
464.25	2.296
464.45	3.168
464.65	2.188
464.85	2.732
465.05	2.492
465.26	2.416
465.46	3.052
465.66	2.775
465.86	2.977
466.06	2.797
466.26	2.964
466.46	2.495
466.66	2.914
466.86	2.781
467.06	2.907
467.26	2.209
467.46	2.851
467.66	2.786
467.86	2.846
468.06	2.629
468.26	2.807
468.46	2.910
468.66	2.456
468.86	1.900
469.06	2.968
469.26	2.446
469.46	1.994
469.66	2.215
469.86	3.271
470.06	2.253
470.26	3.345
470.46	2.219
470.66	3.663
470.86	2.468
471.06	2.071
471.26	1.786
471.46	2.085
471.66	2.419
471.86	2.549
472.06	2.667
472.26	4.207
472.46	3.310
472.66	2.950
472.86	2.344
473.06	2.577
473.26	2.362
473.46	2.130
473.66	2.707
473.86	2.802
474.06	2.573
474.26	2.871
474.46	2.036
474.66	3.205
474.86	2.730
475.06	3.095
475.26	2.277
475.46	3.566
475.66	1.872
475.86	2.951
476.06	3.072
476.26	2.831
476.46	2.962
476.66	3.242
476.86	2.058
477.06	2.684
477.26	2.678
477.46	2.820
477.65	2.498
477.85	3.127
478.05	2.200
478.25	3.605
478.45	2.596
