SpectraSuite Data File
++++++++++++++++++++++++++++++++++++
Date: Sun Sep 22 03:08:22 EST 2019
User: sgrac
Dark Spectrum Present: Yes
Reference Spectrum Present: Yes
Number of Sampled Component Spectra: 1
Spectrometers: USB4E01596
Integration Time (usec): 100000 (USB4E01596)
Spectra Averaged: 1 (USB4E01596)
Boxcar Smoothing: 0 (USB4E01596)
Correct for Electrical Dark: No (USB4E01596)
Strobe/Lamp Enabled: Yes (USB4E01596)
Correct for Detector Non-linearity: No (USB4E01596)
Correct for Stray Light: No (USB4E01596)
Number of Pixels in Processed Spectrum: 3648
>>>>>Begin Processed Spectral Data<<<<<
178.44	807.143
178.66	807.143
178.87	807.143
179.09	-77.778
179.30	-66.667
179.52	167.742
179.74	8100.000
179.95	1077.778
180.17	8700.000
180.38	248.148
180.60	-468.750
180.82	2875.000
181.03	-200.000
181.25	391.304
181.46	-114.286
181.68	-325.000
181.89	341.176
182.11	328.571
182.33	1014.286
182.54	179.310
182.76	727.273
182.97	-528.571
183.19	225.641
183.40	-376.190
183.62	292.593
183.84	217.143
184.05	6600.000
184.27	187.500
184.48	161.702
184.70	482.143
184.91	466.667
185.13	-6050.000
185.34	942.857
185.56	-557.143
185.78	320.000
185.99	311.765
186.21	234.783
186.42	1100.000
186.64	84.211
186.85	-304.167
187.07	281.250
187.28	-2050.000
187.50	457.143
187.72	881.818
187.93	-581.250
188.15	390.909
188.36	300.000
188.58	166.154
188.79	122.581
189.01	469.231
189.22	-1170.000
189.44	180.822
189.65	4550.000
189.87	1940.000
190.09	0.000
190.30	575.000
190.52	-350.000
190.73	491.304
190.95	428.571
191.16	370.000
191.38	-661.538
191.59	6800.000
191.81	182.456
192.02	740.000
192.24	-5400.000
192.45	-500.000
192.67	281.250
192.88	177.273
193.10	8400.000
193.31	-535.714
193.53	1100.000
193.74	192.308
193.96	224.490
194.18	184.211
194.39	-1750.000
194.61	650.000
194.82	232.727
195.04	1114.286
195.25	630.000
195.47	-388.235
195.68	-342.857
195.90	293.750
196.11	800.000
196.33	287.037
196.54	396.970
196.76	766.667
196.97	-400.000
197.19	800.000
197.40	406.061
197.62	218.182
197.83	-1337.500
198.05	1733.333
198.26	168.657
198.48	573.333
198.69	-418.182
198.91	-1733.333
199.12	265.714
199.34	112.963
199.55	273.684
199.77	-400.000
199.98	-561.538
200.20	171.111
200.41	339.474
200.63	177.551
200.84	-562.500
201.06	2040.000
201.27	454.167
201.49	-1085.714
201.70	0.000
201.91	545.000
202.13	162.500
202.34	200.000
202.56	690.909
202.77	286.207
202.99	-416.667
203.20	-1022.222
203.42	134.211
203.63	252.778
203.85	186.792
204.06	507.692
204.28	580.000
204.49	-8000.000
204.71	213.514
204.92	256.667
205.14	354.545
205.35	285.714
205.56	165.306
205.78	720.000
205.99	5200.000
206.21	500.000
206.42	198.333
206.64	3466.667
206.85	156.250
207.07	211.667
207.28	165.574
207.50	425.000
207.71	352.000
207.93	404.348
208.14	-760.000
208.35	-3366.667
208.57	1160.000
208.78	263.043
209.00	175.758
209.21	236.364
209.43	143.478
209.64	800.000
209.86	278.788
210.07	623.077
210.28	500.000
210.50	257.500
210.71	170.213
210.93	581.250
211.14	-6100.000
211.36	276.667
211.57	-6100.000
211.78	-2225.000
212.00	273.684
212.21	970.000
212.43	217.021
212.64	809.091
212.86	248.276
213.07	-2600.000
213.29	139.583
213.50	-515.789
213.71	145.902
213.93	980.000
214.14	850.000
214.36	523.077
214.57	377.273
214.78	177.922
215.00	137.143
215.21	488.889
215.43	412.000
215.64	-7100.000
215.86	550.000
216.07	-823.077
216.28	540.000
216.50	-273.077
216.71	880.000
216.93	441.176
217.14	-304.762
217.35	137.500
217.57	513.333
217.78	547.059
218.00	1733.333
218.21	183.019
218.42	1144.444
218.64	1566.667
218.85	1566.667
219.07	-888.889
219.28	-200.000
219.49	259.259
219.71	166.667
219.92	300.000
220.14	373.913
220.35	3800.000
220.56	170.175
220.78	240.000
220.99	-1033.333
221.21	0.000
221.42	355.172
221.63	790.909
221.85	183.051
222.06	167.347
222.28	186.207
222.49	357.692
222.70	1050.000
222.92	286.000
223.13	161.667
223.34	-716.667
223.56	136.364
223.77	157.447
223.99	558.333
224.20	207.317
224.41	227.273
224.63	94.667
224.84	358.621
225.05	180.952
225.27	123.188
225.48	186.000
225.69	142.857
225.91	101.235
226.12	156.338
226.34	91.262
226.55	102.899
226.76	138.596
226.98	125.000
227.19	195.161
227.40	121.875
227.62	67.000
227.83	81.081
228.04	83.505
228.26	44.628
228.47	95.122
228.69	48.521
228.90	37.647
229.11	39.749
229.33	34.034
229.54	39.223
229.75	34.328
229.97	34.535
230.18	21.053
230.39	27.576
230.61	17.445
230.82	39.349
231.03	18.098
231.25	32.404
231.46	35.599
231.67	30.195
231.89	44.815
232.10	33.209
232.31	8.475
232.53	34.615
232.74	23.750
232.95	46.798
233.17	46.484
233.38	28.177
233.59	44.103
233.81	57.000
234.02	56.667
234.23	21.560
234.45	63.102
234.66	32.243
234.87	43.379
235.09	33.166
235.30	38.537
235.51	37.069
235.73	43.462
235.94	27.861
236.15	47.791
236.36	52.788
236.58	29.496
236.79	39.147
237.00	37.456
237.22	49.020
237.43	33.628
237.64	33.186
237.86	20.796
238.07	29.930
238.28	40.553
238.50	40.794
238.71	12.568
238.92	48.780
239.13	40.239
239.35	42.807
239.56	44.118
239.77	41.667
239.99	31.481
240.20	13.081
240.41	7.018
240.63	34.320
240.84	37.798
241.05	21.148
241.26	17.429
241.48	18.269
241.69	20.635
241.90	16.627
242.12	23.368
242.33	12.681
242.54	10.544
242.75	12.987
242.97	11.019
243.18	13.215
243.39	10.805
243.61	10.035
243.82	13.278
244.03	10.045
244.24	11.301
244.46	11.640
244.67	13.607
244.88	12.991
245.09	13.624
245.31	12.542
245.52	13.467
245.73	18.868
245.95	20.814
246.16	18.692
246.37	13.462
246.58	14.093
246.80	10.807
247.01	11.818
247.22	7.732
247.43	8.108
247.65	11.678
247.86	9.070
248.07	8.638
248.28	4.765
248.50	8.035
248.71	6.296
248.92	4.031
249.13	8.944
249.35	8.724
249.56	7.556
249.77	7.997
249.98	9.211
250.20	8.202
250.41	11.384
250.62	15.711
250.83	9.282
251.05	17.350
251.26	14.607
251.47	13.778
251.68	12.500
251.90	11.816
252.11	16.290
252.32	20.654
252.53	12.188
252.75	10.852
252.96	13.106
253.17	8.554
253.38	14.150
253.59	11.688
253.81	6.941
254.02	7.820
254.23	14.248
254.44	11.335
254.66	6.443
254.87	14.155
255.08	21.531
255.29	16.105
255.50	16.357
255.72	21.260
255.93	9.108
256.14	13.221
256.35	10.176
256.57	18.675
256.78	5.970
256.99	14.717
257.20	23.274
257.41	16.764
257.63	9.903
257.84	15.707
258.05	15.969
258.26	19.410
258.47	9.662
258.69	10.014
258.90	6.069
259.11	14.637
259.32	9.477
259.53	9.825
259.75	8.077
259.96	1.698
260.17	8.699
260.38	7.692
260.59	6.895
260.81	6.811
261.02	4.390
261.23	5.358
261.44	6.137
261.65	6.253
261.87	5.319
262.08	4.933
262.29	8.075
262.50	4.972
262.71	9.328
262.92	5.982
263.14	4.415
263.35	8.469
263.56	4.822
263.77	10.928
263.98	10.108
264.20	13.184
264.41	15.761
264.62	15.523
264.83	7.903
265.04	12.358
265.25	12.343
265.47	10.929
265.68	11.808
265.89	5.422
266.10	6.117
266.31	8.908
266.52	16.052
266.74	7.957
266.95	10.000
267.16	12.818
267.37	7.708
267.58	9.273
267.79	7.077
268.01	2.855
268.22	11.595
268.43	6.754
268.64	7.066
268.85	10.912
269.06	8.443
269.27	9.343
269.49	6.550
269.70	8.758
269.91	10.424
270.12	4.355
270.33	10.823
270.54	6.818
270.75	11.301
270.97	6.854
271.18	7.666
271.39	8.671
271.60	6.406
271.81	4.964
272.02	6.407
272.23	6.633
272.45	8.640
272.66	6.911
272.87	6.913
273.08	3.766
273.29	5.609
273.50	6.278
273.71	4.619
273.92	3.198
274.14	6.014
274.35	4.554
274.56	5.765
274.77	3.739
274.98	6.416
275.19	7.006
275.40	5.599
275.61	6.620
275.83	8.855
276.04	7.754
276.25	9.236
276.46	6.185
276.67	10.640
276.88	8.110
277.09	7.871
277.30	5.319
277.51	8.100
277.73	10.085
277.94	7.789
278.15	5.726
278.36	8.571
278.57	4.800
278.78	4.854
278.99	4.373
279.20	11.037
279.41	13.396
279.62	5.455
279.84	9.840
280.05	10.438
280.26	10.868
280.47	6.784
280.68	12.000
280.89	9.595
281.10	6.927
281.31	9.232
281.52	5.765
281.73	6.547
281.94	5.699
282.16	9.454
282.37	7.843
282.58	7.021
282.79	4.223
283.00	6.242
283.21	8.468
283.42	5.903
283.63	7.329
283.84	8.440
284.05	6.576
284.26	6.645
284.47	6.992
284.68	6.752
284.89	5.935
285.11	6.852
285.32	4.110
285.53	5.251
285.74	3.427
285.95	4.167
286.16	4.297
286.37	6.823
286.58	3.616
286.79	5.734
287.00	6.987
287.21	4.119
287.42	3.856
287.63	3.848
287.84	4.939
288.05	7.007
288.26	4.004
288.48	8.009
288.69	5.325
288.90	5.211
289.11	8.578
289.32	9.330
289.53	5.851
289.74	5.377
289.95	5.336
290.16	3.029
290.37	7.277
290.58	6.751
290.79	6.039
291.00	5.474
291.21	4.686
291.42	6.134
291.63	6.933
291.84	6.070
292.05	3.834
292.26	6.233
292.47	4.591
292.68	7.088
292.89	6.010
293.10	7.733
293.31	5.820
293.52	9.053
293.73	7.208
293.94	5.992
294.15	5.552
294.36	6.504
294.57	9.564
294.79	6.843
295.00	4.908
295.21	5.857
295.42	5.363
295.63	5.084
295.84	5.428
296.05	7.000
296.26	4.784
296.47	4.006
296.68	4.702
296.89	5.561
297.10	6.772
297.31	6.649
297.52	5.059
297.73	6.431
297.94	4.327
298.15	2.831
298.36	5.257
298.57	4.585
298.78	5.338
298.99	4.469
299.20	3.916
299.41	4.820
299.62	4.841
299.83	5.099
300.04	2.633
300.25	5.990
300.46	7.015
300.67	4.679
300.88	6.199
301.09	5.389
301.30	7.797
301.50	3.717
301.71	8.681
301.92	9.741
302.13	4.288
302.34	5.988
302.55	5.638
302.76	5.748
302.97	4.892
303.18	7.367
303.39	7.191
303.60	5.879
303.81	7.790
304.02	6.437
304.23	5.153
304.44	7.053
304.65	5.980
304.86	5.588
305.07	6.427
305.28	6.328
305.49	6.285
305.70	8.628
305.91	5.666
306.12	4.651
306.33	6.353
306.54	6.579
306.75	5.494
306.96	8.490
307.17	5.353
307.38	7.410
307.58	7.160
307.79	6.616
308.00	4.340
308.21	9.048
308.42	5.049
308.63	7.100
308.84	6.690
309.05	7.155
309.26	6.202
309.47	4.830
309.68	5.684
309.89	6.346
310.10	5.013
310.31	5.908
310.52	5.311
310.73	6.618
310.94	2.440
311.14	4.797
311.35	5.410
311.56	8.245
311.77	6.991
311.98	3.121
312.19	5.098
312.40	5.282
312.61	5.086
312.82	5.177
313.03	5.653
313.24	4.680
313.45	5.314
313.66	4.346
313.86	2.981
314.07	6.131
314.28	5.129
314.49	7.214
314.70	6.322
314.91	5.892
315.12	4.338
315.33	5.951
315.54	7.280
315.75	3.170
315.96	3.608
316.16	6.206
316.37	7.178
316.58	4.601
316.79	6.667
317.00	5.288
317.21	5.232
317.42	7.092
317.63	3.706
317.84	4.727
318.05	5.310
318.25	7.674
318.46	6.618
318.67	7.531
318.88	5.896
319.09	5.034
319.30	3.368
319.51	7.383
319.72	6.551
319.93	6.577
320.13	7.011
320.34	7.364
320.55	7.424
320.76	10.466
320.97	3.797
321.18	8.192
321.39	6.250
321.60	4.144
321.80	4.950
322.01	8.215
322.22	6.577
322.43	7.776
322.64	7.344
322.85	7.726
323.06	9.921
323.27	6.484
323.47	6.392
323.68	4.773
323.89	4.328
324.10	7.758
324.31	4.576
324.52	6.574
324.73	5.579
324.93	5.727
325.14	6.348
325.35	5.181
325.56	3.844
325.77	7.074
325.98	4.227
326.19	3.266
326.39	3.988
326.60	5.860
326.81	4.824
327.02	5.580
327.23	2.374
327.44	5.278
327.64	5.966
327.85	5.029
328.06	5.448
328.27	7.227
328.48	5.662
328.69	3.566
328.90	3.874
329.10	3.927
329.31	4.598
329.52	6.990
329.73	5.648
329.94	5.790
330.15	6.644
330.35	4.069
330.56	6.776
330.77	5.062
330.98	6.206
331.19	5.804
331.39	5.075
331.60	7.352
331.81	5.504
332.02	6.982
332.23	6.982
332.44	4.619
332.64	4.378
332.85	5.904
333.06	7.926
333.27	5.520
333.48	6.167
333.68	6.191
333.89	4.228
334.10	3.738
334.31	8.552
334.52	5.664
334.72	4.938
334.93	4.487
335.14	4.893
335.35	5.862
335.56	6.228
335.76	4.929
335.97	4.423
336.18	4.122
336.39	7.798
336.60	6.428
336.80	5.614
337.01	3.173
337.22	6.462
337.43	6.893
337.64	6.024
337.84	5.028
338.05	5.351
338.26	9.157
338.47	6.316
338.68	6.241
338.88	5.429
339.09	6.286
339.30	5.384
339.51	3.493
339.71	5.595
339.92	5.910
340.13	6.455
340.34	5.540
340.55	5.134
340.75	6.739
340.96	3.240
341.17	7.146
341.38	5.597
341.58	8.128
341.79	6.957
342.00	7.656
342.21	5.675
342.41	4.518
342.62	4.649
342.83	6.241
343.04	2.969
343.24	7.001
343.45	7.837
343.66	6.842
343.87	7.877
344.07	5.216
344.28	4.430
344.49	6.705
344.70	8.159
344.90	4.768
345.11	6.962
345.32	7.032
345.53	3.843
345.73	8.499
345.94	6.367
346.15	8.701
346.36	7.759
346.56	5.998
346.77	9.020
346.98	7.943
347.19	8.829
347.39	5.681
347.60	5.828
347.81	8.274
348.02	9.343
348.22	5.454
348.43	7.396
348.64	4.747
348.84	8.627
349.05	6.754
349.26	9.079
349.47	6.355
349.67	7.823
349.88	9.239
350.09	7.238
350.30	11.382
350.50	8.228
350.71	8.926
350.92	8.568
351.12	9.891
351.33	9.797
351.54	9.302
351.74	9.180
351.95	7.550
352.16	10.832
352.37	10.296
352.57	7.486
352.78	8.604
352.99	12.169
353.19	8.240
353.40	10.004
353.61	11.371
353.82	12.797
354.02	10.060
354.23	10.644
354.44	13.339
354.64	10.958
354.85	11.487
355.06	12.311
355.26	9.157
355.47	11.872
355.68	12.995
355.88	15.768
356.09	13.402
356.30	8.797
356.51	12.799
356.71	11.420
356.92	9.493
357.13	15.102
357.33	14.254
357.54	14.157
357.75	8.654
357.95	14.562
358.16	11.136
358.37	17.054
358.57	9.763
358.78	16.261
358.99	13.331
359.19	14.643
359.40	14.351
359.61	14.587
359.81	17.044
360.02	17.666
360.23	11.574
360.43	13.971
360.64	11.963
360.85	14.290
361.05	9.097
361.26	18.079
361.47	16.335
361.67	18.063
361.88	10.926
362.09	16.765
362.29	12.819
362.50	14.835
362.70	10.727
362.91	17.864
363.12	13.652
363.32	15.938
363.53	15.863
363.74	16.089
363.94	12.581
364.15	17.700
364.36	15.232
364.56	14.574
364.77	16.505
364.98	19.434
365.18	13.703
365.39	17.505
365.59	11.800
365.80	13.765
366.01	14.238
366.21	12.485
366.42	12.508
366.63	16.652
366.83	13.810
367.04	11.860
367.24	16.022
367.45	12.631
367.66	10.584
367.86	16.234
368.07	13.341
368.28	13.036
368.48	12.534
368.69	11.308
368.89	12.763
369.10	15.018
369.31	11.677
369.51	14.332
369.72	15.788
369.92	18.138
370.13	13.020
370.34	16.539
370.54	7.316
370.75	15.788
370.95	10.961
371.16	14.007
371.37	12.686
371.57	11.505
371.78	11.481
371.98	13.779
372.19	14.367
372.40	15.004
372.60	11.145
372.81	12.832
373.01	10.797
373.22	11.907
373.43	13.919
373.63	15.163
373.84	12.452
374.04	13.256
374.25	13.631
374.46	15.276
374.66	12.822
374.87	14.037
375.07	8.483
375.28	11.286
375.48	12.292
375.69	15.732
375.90	10.317
376.10	9.315
376.31	10.867
376.51	11.685
376.72	11.625
376.92	10.460
377.13	13.490
377.34	14.786
377.54	13.321
377.75	16.002
377.95	12.019
378.16	16.168
378.36	13.519
378.57	13.945
378.77	13.646
378.98	16.157
379.19	12.621
379.39	13.391
379.60	12.015
379.80	13.254
380.01	12.503
380.21	12.348
380.42	14.315
380.62	12.402
380.83	14.330
381.04	11.420
381.24	12.653
381.45	13.471
381.65	9.990
381.86	12.887
382.06	13.180
382.27	9.808
382.47	11.477
382.68	14.102
382.88	9.274
383.09	10.870
383.29	11.021
383.50	14.917
383.71	10.341
383.91	13.275
384.12	10.211
384.32	13.084
384.53	10.504
384.73	8.182
384.94	9.658
385.14	11.077
385.35	8.992
385.55	12.330
385.76	9.860
385.96	10.700
386.17	13.508
386.37	13.962
386.58	10.341
386.78	13.527
386.99	8.923
387.19	13.400
387.40	9.580
387.60	15.028
387.81	11.013
388.01	11.804
388.22	11.494
388.42	13.380
388.63	12.844
388.83	13.619
389.04	9.012
389.24	11.378
389.45	11.009
389.65	10.778
389.86	10.202
390.06	10.434
390.27	9.972
390.47	12.942
390.68	9.225
390.88	13.976
391.09	12.135
391.29	13.132
391.50	11.497
391.70	14.063
391.91	9.934
392.11	12.261
392.32	11.780
392.52	14.072
392.73	11.668
392.93	12.300
393.14	11.111
393.34	12.618
393.55	12.146
393.75	12.873
393.95	10.992
394.16	11.827
394.36	12.185
394.57	14.089
394.77	11.663
394.98	11.615
395.18	12.360
395.39	12.170
395.59	12.340
395.80	11.405
396.00	11.124
396.21	12.999
396.41	9.834
396.61	13.660
396.82	11.690
397.02	14.334
397.23	12.977
397.43	10.991
397.64	8.548
397.84	13.940
398.05	7.696
398.25	12.177
398.45	9.615
398.66	11.854
398.86	10.463
399.07	13.763
399.27	9.275
399.48	12.988
399.68	9.768
399.89	11.607
400.09	11.417
400.29	10.683
400.50	10.968
400.70	11.599
400.91	8.543
401.11	11.612
401.32	10.530
401.52	9.110
401.72	10.613
401.93	13.053
402.13	9.525
402.34	11.284
402.54	9.501
402.75	12.940
402.95	7.286
403.15	13.029
403.36	8.886
403.56	11.272
403.77	9.370
403.97	11.474
404.17	8.381
404.38	12.703
404.58	9.583
404.79	11.242
404.99	11.547
405.19	10.438
405.40	10.861
405.60	12.173
405.81	10.997
406.01	12.335
406.21	10.200
406.42	11.439
406.62	10.916
406.83	11.670
407.03	11.875
407.23	9.763
407.44	10.369
407.64	11.806
407.85	9.130
408.05	10.579
408.25	10.348
408.46	12.193
408.66	10.802
408.87	9.309
409.07	10.337
409.27	9.557
409.48	8.839
409.68	11.113
409.88	7.366
410.09	11.418
410.29	10.592
410.50	12.420
410.70	7.945
410.90	11.588
411.11	9.365
411.31	10.581
411.51	10.708
411.72	12.430
411.92	9.725
412.12	10.620
412.33	9.317
412.53	10.102
412.74	7.234
412.94	11.122
413.14	9.652
413.35	10.789
413.55	9.752
413.75	12.944
413.96	8.714
414.16	9.933
414.36	9.102
414.57	9.829
414.77	8.131
414.97	10.797
415.18	8.665
415.38	10.129
415.58	9.410
415.79	9.009
415.99	9.695
416.19	11.005
416.40	10.249
416.60	9.459
416.80	9.920
417.01	10.874
417.21	8.704
417.41	12.504
417.62	10.661
417.82	12.557
418.02	9.648
418.23	11.873
418.43	10.461
418.63	12.155
418.84	11.163
419.04	11.749
419.24	12.373
419.45	12.768
419.65	12.841
419.85	12.739
420.06	12.677
420.26	13.538
420.46	11.848
420.67	13.087
420.87	12.780
421.07	13.140
421.28	12.409
421.48	13.093
421.68	12.691
421.88	13.538
422.09	13.099
422.29	12.993
422.49	12.660
422.70	13.888
422.90	13.163
423.10	13.217
423.31	12.780
423.51	13.927
423.71	12.075
423.91	12.829
424.12	11.914
424.32	13.168
424.52	13.255
424.73	12.913
424.93	12.691
425.13	13.091
425.33	12.587
425.54	12.813
425.74	12.331
425.94	13.010
426.15	13.068
426.35	12.273
426.55	12.245
426.75	12.453
426.96	12.335
427.16	12.366
427.36	12.033
427.57	12.809
427.77	11.542
427.97	12.920
428.17	11.662
428.38	12.429
428.58	10.247
428.78	12.126
428.98	10.866
429.19	10.222
429.39	9.716
429.59	11.445
429.79	9.569
430.00	10.133
430.20	9.109
430.40	11.291
430.60	9.485
430.81	11.226
431.01	9.814
431.21	11.517
431.41	9.515
431.62	11.264
431.82	9.013
432.02	12.055
432.22	8.822
432.43	9.692
432.63	8.765
432.83	11.829
433.03	10.103
433.24	11.024
433.44	10.562
433.64	11.951
433.84	10.882
434.05	11.533
434.25	10.401
434.45	12.440
434.65	11.963
434.85	12.281
435.06	11.572
435.26	11.617
435.46	11.441
435.66	12.124
435.87	10.424
436.07	11.586
436.27	10.689
436.47	11.708
436.67	9.606
436.88	11.525
437.08	10.848
437.28	11.847
437.48	10.842
437.69	11.963
437.89	10.518
438.09	12.677
438.29	9.349
438.49	11.581
438.70	10.584
438.90	10.818
439.10	10.755
439.30	11.065
439.50	9.937
439.71	11.446
439.91	10.834
440.11	12.430
440.31	10.971
440.51	11.277
440.72	10.754
440.92	12.190
441.12	11.382
441.32	11.917
441.52	11.847
441.72	12.504
441.93	12.065
442.13	12.634
442.33	11.716
442.53	12.828
442.73	10.978
442.94	12.736
443.14	11.566
443.34	13.242
443.54	11.580
443.74	11.808
443.94	11.586
444.15	11.461
444.35	10.846
444.55	12.462
444.75	11.292
444.95	11.872
445.15	11.193
445.36	11.846
445.56	10.348
445.76	11.511
445.96	11.144
446.16	11.371
446.36	10.762
446.57	12.613
446.77	11.339
446.97	11.453
447.17	12.354
447.37	12.266
447.57	12.027
447.77	12.128
447.98	11.618
448.18	12.603
448.38	11.826
448.58	12.016
448.78	11.759
448.98	11.716
449.18	11.318
449.39	12.053
449.59	11.504
449.79	11.706
449.99	10.628
450.19	12.376
450.39	11.547
450.59	11.366
450.79	10.221
451.00	11.848
451.20	12.237
451.40	11.128
451.60	9.802
451.80	11.978
452.00	9.945
452.20	11.740
452.40	10.308
452.61	11.118
452.81	10.247
453.01	11.943
453.21	10.170
453.41	11.276
453.61	10.602
453.81	10.645
454.01	10.773
454.21	11.281
454.42	11.161
454.62	10.845
454.82	10.454
455.02	10.748
455.22	9.115
455.42	10.266
455.62	9.295
455.82	11.074
456.02	8.941
456.23	10.838
456.43	9.709
456.63	10.554
456.83	8.124
457.03	11.005
457.23	9.044
457.43	11.114
457.63	10.237
457.83	11.247
458.03	9.529
458.23	10.577
458.43	8.416
458.64	10.352
458.84	9.197
459.04	10.923
459.24	10.955
459.44	10.515
459.64	10.361
459.84	11.440
460.04	10.848
460.24	11.572
460.44	11.287
460.64	12.279
460.84	11.665
461.04	11.994
461.24	12.002
461.45	11.830
461.65	12.192
461.85	12.417
462.05	11.582
462.25	12.499
462.45	11.507
462.65	11.612
462.85	9.820
463.05	11.806
463.25	9.487
463.45	11.444
463.65	10.263
463.85	11.944
464.05	10.173
464.25	10.757
464.45	10.195
464.65	9.658
464.85	9.104
465.05	10.051
465.26	9.760
465.46	12.071
465.66	10.571
465.86	11.195
466.06	9.632
466.26	11.447
466.46	9.257
466.66	10.631
466.86	10.656
467.06	10.760
467.26	9.599
467.46	10.894
467.66	10.197
467.86	10.848
468.06	10.120
468.26	10.644
468.46	10.466
468.66	10.570
468.86	8.763
469.06	11.452
469.26	9.806
469.46	9.849
469.66	9.612
469.86	11.055
470.06	10.098
470.26	11.175
