SpectraSuite Data File
++++++++++++++++++++++++++++++++++++
Date: Sun Sep 22 03:22:33 EST 2019
User: sgrac
Dark Spectrum Present: Yes
Reference Spectrum Present: Yes
Number of Sampled Component Spectra: 1
Spectrometers: USB4E01596
Integration Time (usec): 100000 (USB4E01596)
Spectra Averaged: 1 (USB4E01596)
Boxcar Smoothing: 0 (USB4E01596)
Correct for Electrical Dark: No (USB4E01596)
Strobe/Lamp Enabled: Yes (USB4E01596)
Correct for Detector Non-linearity: No (USB4E01596)
Correct for Stray Light: No (USB4E01596)
Number of Pixels in Processed Spectrum: 3648
>>>>>Begin Processed Spectral Data<<<<<
178.44	835.714
178.66	835.714
178.87	835.714
179.09	-180.556
179.30	-555.556
179.52	254.839
179.74	10900.000
179.95	866.667
180.17	7200.000
180.38	214.815
180.60	-587.500
180.82	3150.000
181.03	-186.667
181.25	391.304
181.46	-207.143
181.68	-355.000
181.89	429.412
182.11	500.000
182.33	1385.714
182.54	279.310
182.76	800.000
182.97	-685.714
183.19	348.718
183.40	-328.571
183.62	237.037
183.84	328.571
184.05	11200.000
184.27	280.000
184.48	200.000
184.70	453.571
184.91	620.000
185.13	-5950.000
185.34	864.286
185.56	-528.571
185.78	323.333
185.99	258.824
186.21	326.087
186.42	2100.000
186.64	80.263
186.85	-433.333
187.07	346.875
187.28	-2350.000
187.50	928.571
187.72	772.727
187.93	-368.750
188.15	363.636
188.36	389.189
188.58	181.538
188.79	280.645
189.01	553.846
189.22	-1050.000
189.44	213.699
189.65	6550.000
189.87	2320.000
190.09	0.000
190.30	1200.000
190.52	-334.615
190.73	504.348
190.95	446.429
191.16	720.000
191.38	-969.231
191.59	9700.000
191.81	242.105
192.02	513.333
192.24	-4300.000
192.45	-606.667
192.67	322.917
192.88	134.848
193.10	7200.000
193.31	-378.571
193.53	1160.000
193.74	241.026
193.96	224.490
194.18	321.053
194.39	-1900.000
194.61	741.667
194.82	269.091
195.04	714.286
195.25	1110.000
195.47	-423.529
195.68	-364.286
195.90	221.875
196.11	730.769
196.33	207.407
196.54	342.424
196.76	1133.333
196.97	-700.000
197.19	807.143
197.40	433.333
197.62	339.394
197.83	-1137.500
198.05	2100.000
198.26	223.881
198.48	833.333
198.69	-463.636
198.91	-3266.667
199.12	422.857
199.34	175.926
199.55	647.368
199.77	-452.632
199.98	-953.846
200.20	228.889
200.41	286.842
200.63	293.878
200.84	-712.500
201.06	1960.000
201.27	545.833
201.49	-1342.857
201.70	0.000
201.91	525.000
202.13	285.417
202.34	344.444
202.56	818.182
202.77	282.759
202.99	-766.667
203.20	-788.889
203.42	182.895
203.63	302.778
203.85	201.887
204.06	500.000
204.28	733.333
204.49	-11400.000
204.71	305.405
204.92	403.333
205.14	495.455
205.35	390.476
205.56	165.306
205.78	1120.000
205.99	11600.000
206.21	823.529
206.42	186.667
206.64	2733.333
206.85	164.583
207.07	206.667
207.28	214.754
207.50	514.286
207.71	404.000
207.93	469.565
208.14	-840.000
208.35	-3200.000
208.57	1340.000
208.78	332.609
209.00	243.939
209.21	263.636
209.43	160.870
209.64	1262.500
209.86	272.727
210.07	653.846
210.28	475.000
210.50	282.500
210.71	297.872
210.93	656.250
211.14	-9600.000
211.36	270.000
211.57	-11500.000
211.78	-2875.000
212.00	415.789
212.21	910.000
212.43	191.489
212.64	672.727
212.86	393.103
213.07	-3650.000
213.29	258.333
213.50	-547.368
213.71	150.820
213.93	1180.000
214.14	657.143
214.36	923.077
214.57	504.545
214.78	188.312
215.00	174.286
215.21	472.222
215.43	472.000
215.64	-7200.000
215.86	1175.000
216.07	-892.308
216.28	840.000
216.50	-300.000
216.71	1960.000
216.93	588.235
217.14	-500.000
217.35	218.750
217.57	673.333
217.78	317.647
218.00	3766.667
218.21	190.566
218.42	1188.889
218.64	3166.667
218.85	1366.667
219.07	-777.778
219.28	-370.370
219.49	159.259
219.71	215.556
219.92	302.564
220.14	452.174
220.35	5650.000
220.56	200.000
220.78	250.000
220.99	-1566.667
221.21	0.000
221.42	389.655
221.63	1081.818
221.85	206.780
222.06	214.286
222.28	310.345
222.49	350.000
222.70	1120.000
222.92	314.000
223.13	138.333
223.34	-741.667
223.56	209.091
223.77	234.043
223.99	608.333
224.20	173.171
224.41	320.455
224.63	150.667
224.84	334.483
225.05	225.397
225.27	210.145
225.48	174.000
225.69	200.000
225.91	144.444
226.12	195.775
226.34	85.437
226.55	110.145
226.76	77.193
226.98	153.947
227.19	172.581
227.40	284.375
227.62	120.000
227.83	86.486
228.04	93.814
228.26	78.512
228.47	120.732
228.69	66.864
228.90	38.824
229.11	56.904
229.33	57.143
229.54	23.322
229.75	46.269
229.97	36.036
230.18	33.795
230.39	22.424
230.61	31.153
230.82	44.970
231.03	22.086
231.25	39.721
231.46	38.835
231.67	40.909
231.89	24.444
232.10	36.194
232.31	35.593
232.53	44.872
232.74	37.917
232.95	46.305
233.17	44.141
233.38	33.702
233.59	58.462
233.81	42.000
234.02	52.381
234.23	22.477
234.45	70.053
234.66	41.121
234.87	50.685
235.09	65.327
235.30	41.463
235.51	50.431
235.73	47.308
235.94	44.776
236.15	57.430
236.36	58.736
236.58	30.216
236.79	42.248
237.00	37.809
237.22	45.752
237.43	41.150
237.64	41.593
237.86	22.124
238.07	45.775
238.28	64.516
238.50	39.711
238.71	53.552
238.92	43.554
239.13	33.466
239.35	57.895
239.56	42.017
239.77	42.424
239.99	39.259
240.20	36.337
240.41	21.930
240.63	36.095
240.84	44.643
241.05	32.024
241.26	30.000
241.48	22.115
241.69	28.345
241.90	20.665
242.12	25.053
242.33	20.471
242.54	18.122
242.75	19.336
242.97	15.565
243.18	15.756
243.39	13.908
243.61	14.533
243.82	16.627
244.03	14.447
244.24	12.900
244.46	16.534
244.67	15.918
244.88	18.268
245.09	16.152
245.31	21.405
245.52	18.576
245.73	16.195
245.95	25.352
246.16	21.028
246.37	19.551
246.58	17.091
246.80	15.869
247.01	11.705
247.22	9.794
247.43	9.133
247.65	9.539
247.86	13.256
248.07	8.704
248.28	5.744
248.50	8.349
248.71	8.374
248.92	6.827
249.13	10.110
249.35	9.055
249.56	8.081
249.77	7.549
249.98	9.622
250.20	10.356
250.41	10.010
250.62	17.410
250.83	16.213
251.05	15.847
251.26	17.697
251.47	19.704
251.68	19.079
251.90	15.562
252.11	16.893
252.32	15.750
252.53	16.740
252.75	12.500
252.96	15.334
253.17	12.651
253.38	14.625
253.59	9.445
253.81	14.010
254.02	10.427
254.23	15.963
254.44	13.476
254.66	10.224
254.87	15.068
255.08	21.531
255.29	25.655
255.50	25.465
255.72	14.370
255.93	19.331
256.14	8.894
256.35	24.266
256.57	24.900
256.78	14.925
256.99	30.566
257.20	34.517
257.41	22.612
257.63	13.981
257.84	23.037
258.05	24.961
258.26	15.373
258.47	12.882
258.69	10.570
258.90	13.061
259.11	11.593
259.32	13.508
259.53	6.907
259.75	11.765
259.96	5.982
260.17	8.260
260.38	9.257
260.59	9.428
260.81	8.184
261.02	6.508
261.23	5.699
261.44	7.093
261.65	7.186
261.87	3.844
262.08	4.372
262.29	5.872
262.50	6.545
262.71	8.026
262.92	9.356
263.14	8.504
263.35	10.009
263.56	7.128
263.77	13.608
263.98	12.043
264.20	14.078
264.41	10.011
264.62	11.136
264.83	18.002
265.04	7.440
265.25	19.144
265.47	11.475
265.68	12.682
265.89	9.710
266.10	13.371
266.31	15.182
266.52	19.501
266.74	11.164
266.95	13.444
267.16	13.347
267.37	10.521
267.58	10.134
267.79	7.261
268.01	7.274
268.22	11.247
268.43	9.298
268.64	9.123
268.85	8.876
269.06	7.623
269.27	10.381
269.49	6.458
269.70	9.741
269.91	6.714
270.12	8.284
270.33	8.408
270.54	9.364
270.75	11.396
270.97	10.457
271.18	13.178
271.39	4.955
271.60	8.319
271.81	6.245
272.02	9.002
272.23	9.111
272.45	9.348
272.66	6.496
272.87	8.450
273.08	3.833
273.29	5.677
273.50	6.214
273.71	5.791
273.92	3.851
274.14	9.527
274.35	6.578
274.56	6.030
274.77	5.982
274.98	7.113
275.19	7.006
275.40	10.886
275.61	5.620
275.83	11.048
276.04	10.871
276.25	12.739
276.46	5.301
276.67	10.080
276.88	7.334
277.09	7.374
277.30	7.447
277.51	8.411
277.73	11.171
277.94	6.616
278.15	6.556
278.36	11.008
278.57	8.622
278.78	8.703
278.99	9.083
279.20	11.120
279.41	15.444
279.62	3.636
279.84	11.943
280.05	9.596
280.26	11.030
280.47	9.129
280.68	13.600
280.89	9.098
281.10	9.291
281.31	11.094
281.52	10.838
281.73	8.028
281.94	5.621
282.16	7.763
282.37	9.939
282.58	7.872
282.79	8.948
283.00	10.988
283.21	9.476
283.42	9.677
283.63	10.186
283.84	7.289
284.05	6.762
284.26	8.078
284.47	7.248
284.68	7.846
284.89	8.934
285.11	8.519
285.32	8.593
285.53	7.176
285.74	5.654
285.95	7.420
286.16	5.357
286.37	7.179
286.58	6.080
286.79	3.658
287.00	6.502
287.21	4.516
287.42	4.202
287.63	4.977
287.84	5.652
288.05	7.110
288.26	6.674
288.48	9.076
288.69	8.464
288.90	5.431
289.11	7.638
289.32	8.373
289.53	5.493
289.74	7.247
289.95	4.976
290.16	4.097
290.37	8.545
290.58	7.905
290.79	4.842
291.00	4.233
291.21	5.325
291.42	7.944
291.63	6.548
291.84	5.857
292.05	4.806
292.26	5.908
292.47	4.538
292.68	7.143
292.89	5.398
293.10	7.326
293.31	8.524
293.52	8.935
293.73	7.532
293.94	4.704
294.15	6.416
294.36	7.380
294.57	11.804
294.79	6.720
295.00	4.969
295.21	5.737
295.42	6.055
295.63	4.448
295.84	4.496
296.05	7.684
296.26	4.836
296.47	4.160
296.68	4.297
296.89	5.114
297.10	5.659
297.31	7.181
297.52	4.143
297.73	4.558
297.94	4.286
298.15	4.386
298.36	4.668
298.57	5.808
298.78	4.952
298.99	4.469
299.20	2.844
299.41	3.321
299.62	3.770
299.83	5.275
300.04	3.095
300.25	5.024
300.46	4.527
300.67	5.861
300.88	5.328
301.09	4.464
301.30	6.434
301.50	5.682
301.71	7.624
301.92	9.291
302.13	4.948
302.34	7.443
302.55	3.815
302.76	7.430
302.97	3.320
303.18	7.096
303.39	7.079
303.60	5.039
303.81	5.943
304.02	5.138
304.23	5.889
304.44	5.447
304.65	6.210
304.86	8.847
305.07	7.789
305.28	6.819
305.49	7.008
305.70	6.914
305.91	4.533
306.12	4.651
306.33	5.672
306.54	5.034
306.75	5.786
306.96	8.148
307.17	6.529
307.38	6.663
307.58	6.137
307.79	5.913
308.00	3.362
308.21	7.344
308.42	6.752
308.63	8.294
308.84	4.383
309.05	6.644
309.26	6.641
309.47	4.205
309.68	7.614
309.89	5.015
310.10	7.154
310.31	6.893
310.52	6.316
310.73	4.657
310.94	3.913
311.14	5.208
311.35	3.731
311.56	6.469
311.77	5.575
311.98	3.034
312.19	5.523
312.40	4.039
312.61	5.175
312.82	3.319
313.03	7.281
313.24	6.121
313.45	5.403
313.66	4.993
313.86	3.226
314.07	6.131
314.28	6.723
314.49	6.688
314.70	3.869
314.91	4.826
315.12	5.546
315.33	6.285
315.54	5.418
315.75	4.030
315.96	3.495
316.16	5.171
316.37	6.476
316.58	5.832
316.79	6.720
317.00	7.372
317.21	5.286
317.42	8.136
317.63	5.918
317.84	5.346
318.05	7.434
318.25	7.733
318.46	5.656
318.67	5.493
318.88	4.121
319.09	3.915
319.30	5.251
319.51	8.860
319.72	5.487
319.93	4.328
320.13	7.299
320.34	7.013
320.55	6.299
320.76	9.044
320.97	6.250
321.18	7.782
321.39	6.550
321.60	3.108
321.80	5.446
322.01	6.794
322.22	6.822
322.43	8.019
322.64	8.284
322.85	6.675
323.06	6.534
323.27	4.965
323.47	8.542
323.68	6.818
323.89	5.638
324.10	7.811
324.31	4.906
324.52	6.215
324.73	6.004
324.93	6.673
325.14	6.399
325.35	7.136
325.56	5.569
325.77	7.849
325.98	5.589
326.19	2.714
326.39	5.286
326.60	6.140
326.81	3.216
327.02	4.552
327.23	4.748
327.44	5.231
327.64	4.586
327.85	3.640
328.06	3.467
328.27	7.275
328.48	5.814
328.69	5.123
328.90	6.973
329.10	5.487
329.31	4.598
329.52	5.176
329.73	5.316
329.94	5.519
330.15	7.929
330.35	4.283
330.56	6.035
330.77	3.937
330.98	7.933
331.19	4.865
331.39	7.479
331.60	7.032
331.81	5.669
332.02	6.498
332.23	6.927
332.44	4.458
332.64	5.659
332.85	5.046
333.06	6.780
333.27	5.788
333.48	6.728
333.68	5.619
333.89	4.534
334.10	4.206
334.31	6.803
334.52	5.407
334.72	4.986
334.93	4.935
335.14	6.091
335.35	5.205
335.56	3.856
335.76	3.506
335.97	4.324
336.18	5.855
336.39	4.757
336.60	4.760
336.80	5.233
337.01	3.365
337.22	6.127
337.43	5.697
337.64	3.388
337.84	4.795
338.05	6.873
338.26	7.404
338.47	5.721
338.68	4.130
338.88	5.615
339.09	5.126
339.30	5.290
339.51	2.189
339.71	5.073
339.92	5.675
340.13	5.893
340.34	5.253
340.55	5.605
340.75	5.090
340.96	3.780
341.17	7.389
341.38	4.374
341.58	6.289
341.79	4.591
342.00	5.229
342.21	8.177
342.41	3.959
342.62	5.658
342.83	3.098
343.04	2.474
343.24	4.359
343.45	6.359
343.66	6.842
343.87	5.608
344.07	5.662
344.28	3.752
344.49	4.382
344.70	4.949
344.90	4.684
345.11	6.245
345.32	4.730
345.53	4.697
345.73	6.751
345.94	6.407
346.15	4.080
346.36	5.107
346.56	6.076
346.77	5.428
346.98	6.292
347.19	5.718
347.39	3.586
347.60	4.978
347.81	6.426
348.02	5.622
348.22	3.749
348.43	4.239
348.64	3.682
348.84	5.992
349.05	4.793
349.26	6.756
349.47	6.784
349.67	6.519
349.88	4.801
350.09	5.182
350.30	7.174
350.50	5.731
350.71	5.076
350.92	4.902
351.12	6.566
351.33	5.064
351.54	6.814
351.74	5.465
351.95	5.188
352.16	5.061
352.37	6.294
352.57	5.971
352.78	5.265
352.99	5.997
353.19	3.691
353.40	4.854
353.61	7.047
353.82	6.711
354.02	4.213
354.23	3.241
354.44	6.027
354.64	5.782
354.85	4.052
355.06	5.398
355.26	3.146
355.47	5.568
355.68	5.935
355.88	6.903
356.09	6.340
356.30	4.204
356.51	5.336
356.71	4.173
356.92	3.812
357.13	6.437
357.33	5.277
357.54	5.180
357.75	3.144
357.95	5.344
358.16	5.680
358.37	6.350
358.57	4.706
358.78	6.210
358.99	4.497
359.19	5.864
359.40	5.076
359.61	4.765
359.81	6.305
360.02	5.201
360.23	4.885
360.43	4.895
360.64	4.922
360.85	4.060
361.05	3.757
361.26	6.007
361.47	4.553
361.67	5.667
361.88	3.753
362.09	4.658
362.29	4.017
362.50	3.527
362.70	3.382
362.91	4.781
363.12	4.061
363.32	4.659
363.53	4.626
363.74	5.640
363.94	3.609
364.15	5.969
364.36	5.245
364.56	4.113
364.77	5.929
364.98	6.259
365.18	5.021
365.39	5.845
365.59	3.714
365.80	3.879
366.01	6.618
366.21	4.344
366.42	3.617
366.63	5.900
366.83	5.901
367.04	4.566
367.24	5.574
367.45	4.290
367.66	5.513
367.86	5.733
368.07	5.761
368.28	4.224
368.48	4.786
368.69	4.663
368.89	4.957
369.10	5.218
369.31	3.336
369.51	4.713
369.72	8.182
369.92	5.618
370.13	5.350
370.34	7.070
370.54	3.643
370.75	6.766
370.95	4.792
371.16	4.762
371.37	5.180
371.57	3.966
371.78	5.195
371.98	3.949
372.19	5.204
372.40	5.057
372.60	4.392
372.81	4.591
373.01	3.123
373.22	5.274
373.43	4.392
373.63	4.636
373.84	4.893
374.04	4.891
374.25	6.363
374.46	4.922
374.66	5.782
374.87	6.206
375.07	2.982
375.28	4.596
375.48	5.141
375.69	5.518
375.90	3.113
376.10	3.916
376.31	4.167
376.51	4.807
376.72	3.608
376.92	4.329
377.13	5.001
377.34	5.475
377.54	4.687
377.75	5.583
377.95	3.748
378.16	4.425
378.36	4.281
378.57	4.798
378.77	5.716
378.98	5.143
379.19	4.537
379.39	3.699
379.60	3.568
379.80	3.905
380.01	5.191
380.21	3.557
380.42	5.180
380.62	4.299
380.83	5.583
381.04	4.620
381.24	6.058
381.45	4.617
381.65	4.047
381.86	4.262
382.06	4.800
382.27	1.894
382.47	3.477
382.68	4.889
382.88	4.030
383.09	3.889
383.29	3.630
383.50	5.639
383.71	4.636
383.91	3.263
384.12	3.151
384.32	4.647
384.53	4.256
384.73	3.656
384.94	3.420
385.14	3.708
385.35	1.278
385.55	3.734
385.76	3.668
385.96	3.468
386.17	4.418
386.37	3.969
386.58	2.654
386.78	4.448
386.99	2.967
387.19	4.422
387.40	3.134
387.60	4.048
387.81	3.322
388.01	3.957
388.22	4.105
388.42	3.975
388.63	4.486
388.83	3.696
389.04	2.996
389.24	2.738
389.45	4.120
389.65	3.570
389.86	3.494
390.06	3.278
390.27	4.063
390.47	4.691
390.68	3.598
390.88	4.628
391.09	4.067
391.29	4.903
391.50	4.254
391.70	3.874
391.91	3.667
392.11	2.465
392.32	4.225
392.52	4.095
392.73	4.078
392.93	3.319
393.14	3.347
393.34	3.445
393.55	3.675
393.75	3.531
393.95	3.424
394.16	3.829
394.36	3.110
394.57	3.994
394.77	3.999
394.98	3.296
395.18	3.706
395.39	3.140
395.59	3.826
395.80	3.149
396.00	4.162
396.21	3.157
396.41	3.324
396.61	3.370
396.82	4.095
397.02	4.687
397.23	4.908
397.43	2.731
397.64	3.503
397.84	4.647
398.05	3.000
398.25	4.180
398.45	2.805
398.66	3.704
398.86	3.238
399.07	4.880
399.27	3.497
399.48	3.628
399.68	2.753
399.89	3.104
400.09	4.558
400.29	2.583
400.50	3.992
400.70	3.634
400.91	3.771
401.11	3.285
401.32	3.517
401.52	2.895
401.72	4.165
401.93	4.229
402.13	2.795
402.34	3.446
402.54	3.601
402.75	4.634
402.95	3.610
403.15	5.087
403.36	3.050
403.56	3.944
403.77	3.569
403.97	3.095
404.17	3.205
404.38	3.572
404.58	2.540
404.79	4.284
404.99	3.337
405.19	2.721
405.40	3.453
405.60	3.530
405.81	3.034
406.01	3.845
406.21	2.871
406.42	2.737
406.62	3.388
406.83	2.935
407.03	3.724
407.23	1.953
407.44	3.653
407.64	2.669
407.85	3.299
408.05	2.914
408.25	3.116
408.46	4.163
408.66	4.200
408.87	2.808
409.07	3.101
409.27	3.075
409.48	3.231
409.68	3.529
409.88	3.233
410.09	2.845
410.29	3.852
410.50	3.980
410.70	3.223
410.90	2.734
411.11	3.414
411.31	3.571
411.51	3.588
411.72	3.482
411.92	3.075
412.12	3.453
412.33	3.290
412.53	2.454
412.74	2.543
412.94	2.509
413.14	3.238
413.35	3.033
413.55	3.264
413.75	4.906
413.96	2.495
414.16	3.589
414.36	2.953
414.57	3.322
414.77	2.469
414.97	3.243
415.18	2.823
415.38	2.498
415.58	2.624
415.79	3.127
415.99	3.832
416.19	3.372
416.40	3.229
416.60	2.104
416.80	3.401
417.01	2.495
417.21	2.454
417.41	3.939
417.62	3.481
417.82	3.014
418.02	2.668
418.23	3.602
418.43	2.257
418.63	3.514
418.84	3.048
419.04	2.688
419.24	3.359
419.45	3.353
419.65	3.493
419.85	2.685
420.06	3.083
420.26	3.752
420.46	2.669
420.67	3.382
420.87	3.133
421.07	3.712
421.28	2.811
421.48	3.323
421.68	2.777
421.88	3.864
422.09	3.302
422.29	3.329
422.49	2.334
422.70	3.085
422.90	3.398
423.10	2.988
423.31	2.922
423.51	3.610
423.71	2.481
423.91	3.085
424.12	2.947
424.32	3.217
424.52	3.708
424.73	3.071
424.93	3.592
425.13	2.859
425.33	2.637
425.54	3.014
425.74	2.961
425.94	3.399
426.15	2.867
426.35	2.543
426.55	2.556
426.75	2.868
426.96	3.062
427.16	2.843
427.36	3.219
427.57	3.812
427.77	2.570
427.97	3.087
428.17	3.312
428.38	2.868
428.58	2.485
428.78	2.730
428.98	3.015
429.19	2.302
429.39	2.936
429.59	2.640
429.79	2.048
430.00	3.006
430.20	2.848
430.40	3.372
430.60	2.357
430.81	3.322
431.01	2.572
431.21	2.963
431.41	2.744
431.62	3.356
431.82	2.489
432.02	3.572
432.22	2.628
432.43	1.995
432.63	2.627
432.83	2.935
433.03	2.119
433.24	2.960
433.44	2.652
433.64	2.713
433.84	2.747
434.05	2.956
434.25	2.198
434.45	3.444
434.65	2.852
434.85	2.939
435.06	2.954
435.26	2.795
435.46	2.781
435.66	2.828
435.87	2.329
436.07	2.576
436.27	2.649
436.47	2.793
436.67	1.978
436.88	2.488
437.08	2.933
437.28	2.824
437.48	2.372
437.69	2.823
437.89	1.931
438.09	3.975
438.29	2.668
438.49	3.074
438.70	3.599
438.90	2.137
439.10	2.755
439.30	2.634
439.50	2.032
439.71	3.033
439.91	2.565
440.11	3.201
440.31	2.603
440.51	2.443
440.72	2.528
440.92	2.913
441.12	2.749
441.32	3.612
441.52	2.692
441.72	3.180
441.93	3.335
442.13	2.994
442.33	2.390
442.53	3.359
442.73	1.842
442.94	3.272
443.14	2.959
443.34	3.858
443.54	2.911
443.74	3.114
443.94	2.330
444.15	2.224
444.35	2.385
444.55	2.943
444.75	3.176
444.95	2.971
445.15	3.191
445.36	2.674
445.56	1.908
445.76	2.610
445.96	2.485
446.16	2.279
446.36	2.013
446.57	2.684
446.77	2.229
446.97	2.514
447.17	3.265
447.37	2.646
447.57	3.085
447.77	2.863
447.98	2.410
448.18	3.578
448.38	2.591
448.58	2.667
448.78	2.580
448.98	2.581
449.18	2.036
449.39	2.427
449.59	3.066
449.79	2.384
449.99	2.057
450.19	2.885
450.39	3.250
450.59	3.032
450.79	2.735
451.00	3.243
451.20	3.922
451.40	2.170
451.60	2.494
451.80	2.858
452.00	2.486
452.20	2.232
452.40	2.586
452.61	3.348
452.81	1.776
453.01	2.814
453.21	2.506
453.41	2.943
453.61	3.056
453.81	2.071
454.01	2.638
454.21	2.765
454.42	2.741
454.62	2.813
454.82	2.327
455.02	2.332
455.22	1.693
455.42	2.792
455.62	1.964
455.82	2.502
456.02	2.628
456.23	2.549
456.43	2.725
456.63	2.717
456.83	2.073
457.03	2.702
457.23	2.593
457.43	2.670
457.63	2.130
457.83	1.935
458.03	2.195
458.23	2.408
458.43	1.713
458.64	2.198
458.84	2.329
459.04	2.579
459.24	2.775
459.44	2.131
459.64	2.624
459.84	2.304
460.04	2.289
460.24	2.848
460.44	2.624
460.64	2.855
460.84	2.189
461.04	3.113
461.24	2.693
461.45	3.630
461.65	3.420
461.85	2.805
462.05	2.521
462.25	2.939
462.45	2.913
462.65	2.328
462.85	1.923
463.05	2.553
463.25	2.516
463.45	2.477
463.65	2.202
463.85	3.193
464.05	2.346
464.25	2.675
464.45	2.806
464.65	2.235
464.85	2.426
465.05	2.181
465.26	2.804
465.46	3.109
465.66	3.015
465.86	2.954
466.06	2.344
466.26	2.677
466.46	2.058
466.66	1.854
466.86	2.759
467.06	2.181
467.26	2.591
467.46	2.696
467.66	2.579
467.86	2.583
468.06	2.757
468.26	2.114
468.46	2.508
468.66	2.167
468.86	2.021
469.06	2.968
469.26	2.281
469.46	2.391
469.66	2.383
469.86	2.781
470.06	2.276
470.26	3.046
470.46	1.861
470.66	3.272
470.86	2.342
471.06	2.424
471.26	1.681
471.46	1.409
471.66	2.076
471.86	2.250
472.06	2.481
472.26	3.611
472.46	3.537
472.66	2.728
472.86	2.483
473.06	2.499
473.26	2.242
473.46	2.073
473.66	2.575
473.86	3.175
474.06	2.351
474.26	2.871
474.46	2.058
474.66	2.013
474.86	3.282
475.06	2.607
475.26	2.046
475.46	3.038
475.66	1.651
475.86	2.193
476.06	2.947
476.26	3.145
476.46	2.415
476.66	2.485
476.86	2.058
477.06	2.738
