SpectraSuite Data File
++++++++++++++++++++++++++++++++++++
Date: Mon Sep 23 03:27:32 EST 2019
User: sgrac
Dark Spectrum Present: Yes
Reference Spectrum Present: Yes
Number of Sampled Component Spectra: 1
Spectrometers: USB4E01596
Integration Time (usec): 100000 (USB4E01596)
Spectra Averaged: 3 (USB4E01596)
Boxcar Smoothing: 0 (USB4E01596)
Correct for Electrical Dark: No (USB4E01596)
Strobe/Lamp Enabled: Yes (USB4E01596)
Correct for Detector Non-linearity: No (USB4E01596)
Correct for Stray Light: No (USB4E01596)
Number of Pixels in Processed Spectrum: 3648
>>>>>Begin Processed Spectral Data<<<<<
178.44	1692.308
178.66	1692.308
178.87	1692.308
179.09	6700.000
179.30	-5700.000
179.52	-551.613
179.74	-377.358
179.95	618.182
180.17	-436.111
180.38	457.895
180.60	-2281.818
180.82	666.667
181.03	3633.333
181.25	-2250.000
181.46	-1104.000
181.68	1162.500
181.89	-509.091
182.11	-1743.750
182.33	-1500.000
182.54	602.083
182.76	3500.000
182.97	-444.681
183.19	1220.000
183.40	247.934
183.62	384.615
183.84	277.273
184.05	3585.714
184.27	383.333
184.48	433.333
184.70	1176.471
184.91	980.952
185.13	1610.000
185.34	-9650.000
185.56	984.615
185.78	393.056
185.99	783.333
186.21	322.727
186.42	-4775.000
186.64	1670.000
186.85	-4460.000
187.07	558.000
187.28	438.158
187.50	370.909
187.72	280.769
187.93	761.818
188.15	285.417
188.36	427.632
188.58	455.102
188.79	289.423
189.01	402.817
189.22	678.378
189.44	-815.152
189.65	261.017
189.87	-5375.000
190.09	346.032
190.30	838.095
190.52	356.667
190.73	586.957
190.95	-4333.333
191.16	326.190
191.38	429.730
191.59	358.824
191.81	408.065
192.02	1406.667
192.24	740.625
192.45	814.706
192.67	-1506.250
192.88	426.415
193.10	459.016
193.31	742.500
193.53	240.323
193.74	281.333
193.96	1835.714
194.18	734.615
194.39	1720.000
194.61	349.315
194.82	1077.273
195.04	263.415
195.25	-357.895
195.47	-379.630
195.68	4466.667
195.90	485.455
196.11	283.582
196.33	21800.000
196.54	670.732
196.76	1392.857
196.97	354.545
197.19	683.784
197.40	1807.143
197.62	197.248
197.83	900.000
198.05	480.000
198.26	813.793
198.48	429.577
198.69	428.333
198.91	1005.556
199.12	467.442
199.34	528.261
199.55	388.571
199.77	1626.316
199.98	858.824
200.20	339.474
200.41	458.065
200.63	292.035
200.84	1842.857
201.06	2166.667
201.27	660.976
201.49	336.620
201.70	-663.333
201.91	298.611
202.13	376.271
202.34	360.345
202.56	-960.000
202.77	382.222
202.99	4400.000
203.20	-3212.500
203.42	1481.250
203.63	306.579
203.85	4533.333
204.06	470.000
204.28	256.566
204.49	466.667
204.71	344.068
204.92	630.769
205.14	0.000
205.35	493.333
205.56	-1090.000
205.78	5320.000
205.99	-1521.429
206.21	9400.000
206.42	618.182
206.64	796.774
206.85	744.444
207.07	-1944.444
207.28	358.621
207.50	586.957
207.71	893.548
207.93	215.663
208.14	-1040.741
208.35	332.727
208.57	744.000
208.78	-2666.667
209.00	255.319
209.21	-12650.000
209.43	-7700.000
209.64	-1326.667
209.86	237.113
210.07	358.140
210.28	405.634
210.50	924.138
210.71	480.392
210.93	236.765
211.14	305.618
211.36	1118.750
211.57	374.242
211.78	358.571
212.00	338.824
212.21	422.857
212.43	741.026
212.64	335.106
212.86	386.486
213.07	305.505
213.29	-558.333
213.50	278.261
213.71	314.943
213.93	302.439
214.14	990.909
214.36	263.235
214.57	321.519
214.78	573.333
215.00	298.958
215.21	960.000
215.43	783.784
215.64	304.762
215.86	308.750
216.07	654.286
216.28	721.053
216.50	241.667
216.71	23100.000
216.93	433.333
217.14	1077.778
217.35	233.333
217.57	258.559
217.78	322.222
218.00	254.545
218.21	1126.087
218.42	623.404
218.64	419.643
218.85	444.000
219.07	770.000
219.28	296.262
219.49	386.275
219.71	435.385
219.92	202.985
220.14	294.845
220.35	358.667
220.56	227.586
220.78	187.500
220.99	209.677
221.21	276.344
221.42	249.383
221.63	155.491
221.85	336.923
222.06	301.429
222.28	353.846
222.49	254.955
222.70	224.409
222.92	640.816
223.13	363.934
223.34	221.986
223.56	227.381
223.77	232.500
223.99	342.105
224.20	375.000
224.41	232.877
224.63	206.818
224.84	231.081
225.05	120.085
225.27	234.783
225.48	157.843
225.69	222.556
225.91	290.541
226.12	203.101
226.34	161.745
226.55	130.935
226.76	203.750
226.98	149.412
227.19	95.312
227.40	200.000
227.62	128.042
227.83	105.150
228.04	82.123
228.26	72.751
228.47	79.887
228.69	57.868
228.90	39.019
229.11	48.722
229.33	40.282
229.54	33.977
229.75	27.801
229.97	28.937
230.18	35.169
230.39	35.951
230.61	37.344
230.82	35.928
231.03	29.771
231.25	29.366
231.46	34.163
231.67	39.843
231.89	45.682
232.10	43.930
232.31	43.079
232.53	55.857
232.74	61.869
232.95	41.379
233.17	31.600
233.38	44.538
233.59	60.297
233.81	56.341
234.02	41.283
234.23	61.702
234.45	53.472
234.66	52.876
234.87	47.336
235.09	52.090
235.30	44.834
235.51	51.246
235.73	46.939
235.94	43.541
236.15	52.269
236.36	44.673
236.58	36.817
236.79	45.723
237.00	45.308
237.22	32.823
237.43	56.573
237.64	47.559
237.86	45.489
238.07	49.141
238.28	39.194
238.50	38.176
238.71	36.511
238.92	47.656
239.13	49.153
239.35	45.879
239.56	43.640
239.77	41.601
239.99	35.825
240.20	47.507
240.41	31.851
240.63	32.075
240.84	40.174
241.05	34.825
241.26	30.088
241.48	26.829
241.69	23.682
241.90	22.991
242.12	20.453
242.33	24.650
242.54	16.947
242.75	18.629
242.97	17.919
243.18	13.709
243.39	13.315
243.61	18.119
243.82	23.529
244.03	19.336
244.24	17.206
244.46	18.512
244.67	24.453
244.88	22.256
245.09	21.737
245.31	24.565
245.52	20.976
245.73	16.505
245.95	35.608
246.16	23.352
246.37	16.637
246.58	16.593
246.80	16.992
247.01	21.480
247.22	15.551
247.43	16.456
247.65	16.070
247.86	18.197
248.07	12.133
248.28	15.023
248.50	17.010
248.71	14.601
248.92	15.255
249.13	13.346
249.35	17.403
249.56	15.244
249.77	17.156
249.98	14.815
250.20	22.219
250.41	16.827
250.62	19.645
250.83	18.170
251.05	16.210
251.26	17.234
251.47	15.232
251.68	16.770
251.90	17.647
252.11	20.560
252.32	22.392
252.53	19.185
252.75	15.298
252.96	21.166
253.17	16.619
253.38	16.252
253.59	16.230
253.81	16.489
254.02	13.276
254.23	18.678
254.44	13.521
254.66	15.410
254.87	16.409
255.08	21.295
255.29	22.425
255.50	14.615
255.72	18.786
255.93	20.478
256.14	22.727
256.35	19.337
256.57	25.639
256.78	19.663
256.99	18.243
257.20	25.406
257.41	19.499
257.63	25.536
257.84	15.796
258.05	19.072
258.26	16.808
258.47	19.042
258.69	18.395
258.90	11.340
259.11	15.575
259.32	16.263
259.53	14.158
259.75	12.642
259.96	11.910
260.17	12.268
260.38	10.531
260.59	13.228
260.81	12.669
261.02	11.693
261.23	12.836
261.44	14.291
261.65	13.221
261.87	12.524
262.08	14.977
262.29	14.658
262.50	12.803
262.71	12.881
262.92	16.421
263.14	11.917
263.35	13.923
263.56	14.018
263.77	15.706
263.98	12.216
264.20	16.743
264.41	14.219
264.62	13.310
264.83	13.247
265.04	18.575
265.25	15.349
265.47	15.027
265.68	18.159
265.89	13.672
266.10	8.256
266.31	18.406
266.52	13.579
266.74	11.565
266.95	14.352
267.16	16.135
267.37	12.888
267.58	12.561
267.79	13.998
268.01	13.201
268.22	12.931
268.43	15.143
268.64	14.177
268.85	12.299
269.06	11.435
269.27	15.098
269.49	11.732
269.70	12.238
269.91	14.024
270.12	11.518
270.33	15.202
270.54	10.663
270.75	9.986
270.97	15.080
271.18	10.972
271.39	11.603
271.60	12.843
271.81	10.454
272.02	12.474
272.23	15.906
272.45	11.831
272.66	9.027
272.87	12.102
273.08	10.330
273.29	13.297
273.50	12.369
273.71	11.103
273.92	9.952
274.14	9.139
274.35	12.006
274.56	13.409
274.77	12.569
274.98	11.212
275.19	12.104
275.40	12.897
275.61	12.068
275.83	15.983
276.04	12.636
276.25	14.102
276.46	13.532
276.67	15.150
276.88	17.880
277.09	13.519
277.30	14.383
277.51	15.063
277.73	10.235
277.94	10.961
278.15	16.184
278.36	13.749
278.57	10.700
278.78	11.970
278.99	13.933
279.20	12.107
279.41	18.744
279.62	10.971
279.84	10.738
280.05	12.375
280.26	9.837
280.47	13.806
280.68	12.420
280.89	10.657
281.10	11.726
281.31	12.066
281.52	14.237
281.73	8.567
281.94	10.081
282.16	11.556
282.37	9.665
282.58	11.492
282.79	16.600
283.00	15.544
283.21	10.664
283.42	11.417
283.63	12.941
283.84	10.396
284.05	12.835
284.26	9.628
284.47	12.329
284.68	12.418
284.89	12.580
285.11	12.204
285.32	9.484
285.53	11.940
285.74	15.216
285.95	10.529
286.16	13.879
286.37	10.201
286.58	11.793
286.79	10.488
287.00	10.114
287.21	10.528
287.42	10.592
287.63	11.584
287.84	9.781
288.05	12.055
288.26	9.223
288.48	13.333
288.69	9.148
288.90	11.980
289.11	13.132
289.32	14.393
289.53	11.534
289.74	8.438
289.95	10.797
290.16	11.050
290.37	9.723
290.58	8.347
290.79	8.204
291.00	9.312
291.21	7.883
291.42	8.156
291.63	10.442
291.84	13.173
292.05	7.680
292.26	10.558
292.47	9.659
292.68	7.495
292.89	11.017
293.10	11.926
293.31	10.666
293.52	8.795
293.73	10.930
293.94	10.168
294.15	10.091
294.36	11.658
294.57	11.855
294.79	9.718
295.00	7.441
295.21	11.612
295.42	11.142
295.63	10.989
295.84	9.695
296.05	9.028
296.26	9.393
296.47	9.026
296.68	10.271
296.89	13.684
297.10	11.076
297.31	10.304
297.52	7.558
297.73	10.970
297.94	10.792
298.15	10.281
298.36	10.853
298.57	9.737
298.78	11.135
298.99	8.923
299.20	10.899
299.41	12.536
299.62	12.462
299.83	8.909
300.04	9.645
300.25	12.640
300.46	13.336
300.67	13.256
300.88	11.953
301.09	9.544
301.30	10.163
301.50	9.708
301.71	14.362
301.92	11.836
302.13	11.865
302.34	9.816
302.55	9.527
302.76	10.139
302.97	9.467
303.18	11.104
303.39	8.116
303.60	9.907
303.81	12.133
304.02	7.884
304.23	11.667
304.44	8.455
304.65	8.667
304.86	10.230
305.07	10.471
305.28	9.665
305.49	12.919
305.70	10.360
305.91	9.540
306.12	10.578
306.33	9.397
306.54	10.468
306.75	10.713
306.96	15.524
307.17	11.663
307.38	10.460
307.58	10.362
307.79	11.406
308.00	9.077
308.21	9.264
308.42	10.007
308.63	9.429
308.84	10.197
309.05	10.208
309.26	8.564
309.47	11.707
309.68	9.620
309.89	11.749
310.10	9.807
310.31	9.089
310.52	8.194
310.73	12.830
310.94	8.153
311.14	8.941
311.35	9.285
311.56	10.594
311.77	8.208
311.98	8.798
312.19	10.142
312.40	8.113
312.61	8.957
312.82	10.489
313.03	8.147
313.24	9.988
313.45	10.501
313.66	9.212
313.86	12.118
314.07	10.097
314.28	11.452
314.49	8.712
314.70	13.070
314.91	11.791
315.12	9.670
315.33	11.181
315.54	8.413
315.75	8.078
315.96	8.057
316.16	8.271
316.37	11.878
316.58	8.727
316.79	8.920
317.00	11.104
317.21	9.504
317.42	11.283
317.63	9.542
317.84	10.967
318.05	9.210
318.25	11.677
318.46	9.872
318.67	8.656
318.88	11.006
319.09	12.096
319.30	8.254
319.51	9.064
319.72	9.717
319.93	8.108
320.13	9.894
320.34	12.412
320.55	11.930
320.76	10.632
320.97	10.693
321.18	11.625
321.39	8.526
321.60	10.675
321.80	12.605
322.01	9.610
322.22	9.113
322.43	7.958
322.64	8.989
322.85	13.037
323.06	11.980
323.27	11.060
323.47	9.848
323.68	10.670
323.89	9.933
324.10	9.504
324.31	8.714
324.52	9.285
324.73	10.988
324.93	9.839
325.14	10.356
325.35	10.644
325.56	8.682
325.77	10.491
325.98	10.345
326.19	10.458
326.39	7.894
326.60	9.322
326.81	9.965
327.02	6.592
327.23	8.284
327.44	12.279
327.64	7.485
327.85	7.177
328.06	11.873
328.27	15.029
328.48	10.689
328.69	8.354
328.90	10.211
329.10	9.869
329.31	10.387
329.52	10.002
329.73	12.712
329.94	9.196
330.15	11.538
330.35	12.170
330.56	11.286
330.77	11.494
330.98	8.232
331.19	8.887
331.39	11.604
331.60	10.231
331.81	9.524
332.02	10.639
332.23	8.710
332.44	9.314
332.64	11.000
332.85	9.084
333.06	10.644
333.27	8.045
333.48	10.639
333.68	9.022
333.89	8.706
334.10	8.602
334.31	10.768
334.52	11.297
334.72	8.563
334.93	9.388
335.14	8.594
335.35	9.136
335.56	11.289
335.76	8.517
335.97	11.251
336.18	8.365
336.39	12.578
336.60	9.469
336.80	8.421
337.01	9.089
337.22	10.686
337.43	10.056
337.64	12.751
337.84	11.142
338.05	11.066
338.26	13.391
338.47	13.148
338.68	8.025
338.88	10.187
339.09	9.681
339.30	11.893
339.51	10.810
339.71	12.294
339.92	9.504
340.13	10.981
340.34	10.139
340.55	11.445
340.75	10.774
340.96	8.554
341.17	11.159
341.38	11.053
341.58	9.981
341.79	11.827
342.00	8.588
342.21	10.366
342.41	8.094
342.62	9.813
342.83	11.433
343.04	7.700
343.24	11.053
343.45	12.152
343.66	8.055
343.87	11.137
344.07	8.082
344.28	10.997
344.49	10.596
344.70	12.938
344.90	9.584
345.11	8.680
345.32	10.265
345.53	10.680
345.73	10.533
345.94	13.216
346.15	12.137
346.36	10.651
346.56	10.625
346.77	11.912
346.98	10.560
347.19	11.562
347.39	10.480
347.60	10.327
347.81	12.217
348.02	12.533
348.22	9.329
348.43	12.038
348.64	10.956
348.84	11.685
349.05	11.633
349.26	13.238
349.47	8.673
349.67	10.822
349.88	12.622
350.09	11.060
350.30	12.320
350.50	10.946
350.71	13.253
350.92	11.384
351.12	12.521
351.33	10.538
351.54	10.892
351.74	11.819
351.95	10.962
352.16	13.372
352.37	12.443
352.57	11.392
352.78	10.700
352.99	11.227
353.19	10.702
353.40	11.614
353.61	12.793
353.82	12.938
354.02	14.023
354.23	12.043
354.44	14.430
354.64	12.079
354.85	12.026
355.06	11.871
355.26	9.326
355.47	10.662
355.68	12.317
355.88	13.351
356.09	13.306
356.30	11.691
356.51	12.851
356.71	12.484
356.92	9.077
357.13	12.726
357.33	14.811
357.54	13.674
357.75	10.054
357.95	13.083
358.16	10.643
358.37	14.104
358.57	11.969
358.78	14.228
358.99	11.846
359.19	11.692
359.40	13.021
359.61	11.439
359.81	13.339
360.02	15.143
360.23	10.804
360.43	12.099
360.64	11.004
360.85	11.614
361.05	10.975
361.26	12.989
361.47	11.716
361.67	13.740
361.88	10.481
362.09	13.385
362.29	10.247
362.50	12.008
362.70	11.278
362.91	13.013
363.12	11.193
363.32	12.732
363.53	12.176
363.74	12.935
363.94	10.495
364.15	14.288
364.36	12.935
364.56	10.922
364.77	12.052
364.98	13.666
365.18	12.332
365.39	13.501
365.59	10.761
365.80	11.452
366.01	12.903
366.21	11.179
366.42	10.423
366.63	13.717
366.83	11.012
367.04	9.535
367.24	13.223
367.45	11.294
367.66	10.363
367.86	12.303
368.07	11.348
368.28	10.965
368.48	11.894
368.69	9.840
368.89	10.722
369.10	11.743
369.31	11.361
369.51	11.466
369.72	12.510
369.92	13.208
370.13	9.655
370.34	11.455
370.54	6.830
370.75	11.161
370.95	9.448
371.16	11.287
371.37	10.925
371.57	11.091
371.78	10.874
371.98	11.492
372.19	12.032
372.40	12.486
372.60	11.855
372.81	11.638
373.01	9.096
373.22	10.160
373.43	11.388
373.63	11.784
373.84	11.229
374.04	11.463
374.25	9.827
374.46	12.116
374.66	11.650
374.87	12.184
375.07	8.819
375.28	9.210
375.48	10.505
375.69	11.244
375.90	8.609
376.10	9.103
376.31	9.561
376.51	9.282
376.72	10.081
376.92	9.532
377.13	10.377
377.34	11.011
377.54	10.431
377.75	12.084
377.95	10.102
378.16	11.365
378.36	10.484
378.57	11.668
378.77	10.538
378.98	9.851
379.19	9.631
379.39	9.171
379.60	11.155
379.80	9.987
380.01	11.495
380.21	9.883
380.42	10.335
380.62	10.735
380.83	11.087
381.04	10.058
381.24	10.332
381.45	11.037
381.65	8.845
381.86	10.601
382.06	10.723
382.27	8.454
382.47	8.909
382.68	10.769
382.88	8.568
383.09	8.771
383.29	9.853
383.50	11.069
383.71	9.571
383.91	10.386
384.12	9.054
384.32	10.573
384.53	9.447
384.73	8.533
384.94	8.515
385.14	9.363
385.35	8.857
385.55	9.852
385.76	8.906
385.96	8.943
386.17	9.609
386.37	10.776
386.58	9.360
386.78	10.821
386.99	8.611
387.19	10.173
387.40	8.422
387.60	11.724
387.81	8.747
388.01	8.780
388.22	9.703
388.42	10.128
388.63	10.305
388.83	11.119
389.04	8.394
389.24	9.324
389.45	9.516
389.65	9.357
389.86	9.049
390.06	7.749
390.27	8.517
390.47	8.515
390.68	8.851
390.88	10.553
391.09	10.111
391.29	10.307
391.50	9.585
391.70	9.942
391.91	9.337
392.11	9.379
392.32	9.622
392.52	10.264
392.73	9.256
392.93	9.453
393.14	9.431
393.34	8.974
393.55	9.659
393.75	9.332
393.95	8.738
394.16	10.425
394.36	10.807
394.57	11.011
394.77	9.069
394.98	9.495
395.18	9.736
395.39	9.547
395.59	9.459
395.80	9.603
396.00	9.567
396.21	10.711
396.41	8.287
396.61	10.313
396.82	9.420
397.02	11.126
397.23	10.298
397.43	9.149
397.64	8.488
397.84	10.778
398.05	7.667
398.25	9.708
398.45	9.082
398.66	9.276
398.86	9.039
399.07	10.482
399.27	8.613
399.48	9.722
399.68	8.261
399.89	9.413
400.09	9.362
400.29	7.951
400.50	8.524
400.70	9.853
400.91	8.904
401.11	8.724
401.32	8.672
401.52	7.409
401.72	8.907
401.93	10.130
402.13	8.842
402.34	8.566
402.54	8.265
402.75	10.343
402.95	7.415
403.15	10.573
403.36	7.832
403.56	10.034
403.77	8.257
403.97	8.772
404.17	8.895
404.38	9.405
404.58	8.457
404.79	9.899
404.99	9.539
405.19	8.875
405.40	8.367
405.60	9.487
405.81	8.403
406.01	8.202
406.21	8.809
406.42	9.446
406.62	8.396
406.83	9.816
407.03	10.017
407.23	8.084
407.44	7.764
407.64	9.656
407.85	8.973
408.05	8.567
408.25	8.470
408.46	9.887
408.66	9.466
408.87	8.987
409.07	8.380
409.27	8.283
409.48	7.649
409.68	8.852
409.88	6.715
410.09	8.050
410.29	8.843
410.50	10.355
410.70	7.643
410.90	8.873
411.11	7.469
411.31	8.872
411.51	8.780
411.72	10.079
411.92	7.802
412.12	9.012
412.33	8.015
412.53	7.971
412.74	7.376
412.94	8.535
413.14	8.709
413.35	8.995
413.55	8.993
413.75	9.820
413.96	8.362
414.16	7.979
414.36	8.354
414.57	9.205
414.77	7.651
414.97	8.518
415.18	8.057
415.38	8.842
415.58	8.354
415.79	7.617
415.99	7.604
416.19	9.449
416.40	8.927
416.60	8.771
416.80	7.947
417.01	8.575
417.21	6.633
417.41	9.188
417.62	8.647
417.82	9.244
418.02	7.585
418.23	8.987
418.43	8.262
418.63	8.923
418.84	9.168
419.04	8.634
419.24	9.166
419.45	9.428
419.65	9.225
419.85	9.382
420.06	9.156
420.26	9.247
420.46	9.150
420.67	9.575
420.87	9.171
421.07	9.440
421.28	9.457
421.48	9.463
421.68	9.408
421.88	9.583
422.09	9.625
422.29	9.417
422.49	8.992
422.70	9.191
422.90	9.460
423.10	9.557
423.31	9.465
423.51	9.302
423.71	9.257
423.91	9.386
424.12	9.339
424.32	9.551
424.52	9.190
424.73	9.508
424.93	9.437
425.13	9.328
425.33	9.154
425.54	9.450
425.74	9.200
425.94	9.527
426.15	9.752
426.35	9.532
426.55	9.161
426.75	9.919
426.96	9.310
427.16	8.994
427.36	9.407
427.57	9.420
427.77	9.157
427.97	8.961
428.17	9.032
428.38	9.238
428.58	8.110
428.78	9.782
428.98	8.157
429.19	8.319
429.39	7.689
429.59	9.058
429.79	7.765
430.00	7.662
430.20	7.518
430.40	8.499
430.60	7.976
430.81	8.585
431.01	8.161
431.21	8.761
431.41	7.579
431.62	8.760
431.82	7.832
432.02	8.646
432.22	8.192
432.43	8.333
432.63	8.013
432.83	8.895
433.03	8.325
433.24	8.060
433.44	7.923
433.64	8.594
433.84	8.033
434.05	8.850
434.25	8.513
434.45	9.150
434.65	9.035
434.85	9.166
435.06	8.836
435.26	8.605
435.46	8.374
435.66	9.125
435.87	8.505
436.07	8.617
436.27	8.611
436.47	7.940
436.67	7.762
436.88	8.667
437.08	8.088
437.28	8.578
437.48	8.181
437.69	8.628
437.89	8.124
438.09	9.076
438.29	7.953
438.49	8.809
438.70	8.318
438.90	8.346
439.10	7.911
439.30	8.633
439.50	7.796
439.71	8.796
439.91	8.533
440.11	8.964
440.31	8.492
440.51	8.282
440.72	8.345
440.92	8.557
441.12	9.247
441.32	9.316
441.52	9.119
441.72	8.993
441.93	8.850
442.13	9.266
442.33	8.846
442.53	9.097
442.73	8.250
442.94	8.510
443.14	8.168
443.34	9.114
443.54	8.431
443.74	8.790
443.94	8.293
444.15	8.141
444.35	8.560
444.55	8.625
444.75	7.865
444.95	8.396
445.15	8.224
445.36	8.535
445.56	7.833
445.76	8.610
445.96	8.564
446.16	8.589
446.36	8.001
446.57	8.888
446.77	8.160
446.97	8.662
447.17	8.827
447.37	8.717
447.57	8.646
447.77	8.688
447.98	8.867
448.18	8.948
448.38	8.431
448.58	8.978
448.78	8.885
448.98	8.785
449.18	8.241
449.39	8.766
449.59	8.008
449.79	8.349
449.99	7.798
450.19	8.791
450.39	7.780
450.59	8.283
450.79	7.809
451.00	8.212
451.20	9.211
451.40	8.044
451.60	7.561
451.80	8.407
452.00	7.699
452.20	8.414
452.40	8.055
452.61	8.023
452.81	8.159
453.01	8.406
453.21	8.012
453.41	8.238
453.61	7.946
453.81	8.280
454.01	8.119
454.21	7.859
454.42	8.622
454.62	8.184
454.82	7.866
455.02	8.354
455.22	7.393
455.42	8.268
455.62	7.387
455.82	8.047
456.02	7.854
456.23	7.974
456.43	7.195
456.63	7.992
456.83	7.073
457.03	8.268
457.23	8.103
457.43	8.449
457.63	7.301
457.83	8.526
458.03	7.578
458.23	7.572
458.43	6.938
458.64	7.694
458.84	7.833
459.04	8.132
459.24	8.327
459.44	8.071
459.64	8.404
459.84	8.061
460.04	8.454
460.24	8.434
460.44	8.226
460.64	8.722
460.84	8.235
461.04	8.699
461.24	8.649
461.45	8.623
461.65	8.744
461.85	8.643
462.05	8.421
462.25	8.590
462.45	8.821
462.65	8.639
462.85	7.497
463.05	8.259
463.25	7.027
463.45	8.344
463.65	7.702
463.85	8.158
464.05	8.109
464.25	8.018
464.45	8.078
464.65	8.035
464.85	7.337
465.05	7.895
465.26	8.378
465.46	8.221
465.66	7.813
465.86	8.071
466.06	7.918
466.26	8.190
466.46	6.937
466.66	8.122
466.86	7.406
467.06	7.975
467.26	7.881
467.46	8.133
467.66	7.677
467.86	7.771
468.06	7.970
468.26	7.847
468.46	7.727
468.66	7.879
468.86	6.750
469.06	7.998
469.26	7.022
469.46	8.017
469.66	7.226
469.86	8.123
470.06	7.429
470.26	8.035
470.46	7.181
