SpectraSuite Data File
++++++++++++++++++++++++++++++++++++
Date: Mon Sep 23 03:19:32 EST 2019
User: sgrac
Dark Spectrum Present: Yes
Reference Spectrum Present: Yes
Number of Sampled Component Spectra: 1
Spectrometers: USB4E01596
Integration Time (usec): 100000 (USB4E01596)
Spectra Averaged: 3 (USB4E01596)
Boxcar Smoothing: 0 (USB4E01596)
Correct for Electrical Dark: No (USB4E01596)
Strobe/Lamp Enabled: Yes (USB4E01596)
Correct for Detector Non-linearity: No (USB4E01596)
Correct for Stray Light: No (USB4E01596)
Number of Pixels in Processed Spectrum: 3648
>>>>>Begin Processed Spectral Data<<<<<
178.44	1015.385
178.66	1015.385
178.87	1015.385
179.09	7533.333
179.30	-4100.000
179.52	-429.032
179.74	-369.811
179.95	570.455
180.17	-369.444
180.38	350.877
180.60	-2618.182
180.82	573.333
181.03	3783.333
181.25	-1525.000
181.46	-780.000
181.68	1116.667
181.89	-413.636
182.11	-1325.000
182.33	-1525.000
182.54	575.000
182.76	3800.000
182.97	-517.021
183.19	1010.000
183.40	209.917
183.62	307.692
183.84	251.818
184.05	3228.571
184.27	312.121
184.48	243.939
184.70	1129.412
184.91	942.857
185.13	1930.000
185.34	-9850.000
185.56	873.077
185.78	301.389
185.99	891.667
186.21	219.318
186.42	-3900.000
186.64	1260.000
186.85	-3480.000
187.07	420.000
187.28	371.053
187.50	514.545
187.72	247.436
187.93	616.364
188.15	261.458
188.36	293.421
188.58	436.735
188.79	242.308
189.01	401.408
189.22	591.892
189.44	-700.000
189.65	242.373
189.87	-5175.000
190.09	315.873
190.30	623.810
190.52	405.000
190.73	532.609
190.95	-2650.000
191.16	251.190
191.38	440.541
191.59	402.941
191.81	406.452
192.02	986.667
192.24	659.375
192.45	797.059
192.67	-1243.750
192.88	345.283
193.10	352.459
193.31	487.500
193.53	237.903
193.74	373.333
193.96	2100.000
194.18	707.692
194.39	1093.333
194.61	279.452
194.82	981.818
195.04	262.195
195.25	-312.281
195.47	-338.889
195.68	2816.667
195.90	365.455
196.11	182.090
196.33	17100.000
196.54	578.049
196.76	1285.714
196.97	346.753
197.19	645.946
197.40	1885.714
197.62	162.385
197.83	777.419
198.05	498.182
198.26	668.966
198.48	381.690
198.69	360.000
198.91	694.444
199.12	479.070
199.34	473.913
199.55	257.143
199.77	1268.421
199.98	782.353
200.20	281.579
200.41	390.323
200.63	231.858
200.84	1428.571
201.06	2377.778
201.27	668.293
201.49	257.746
201.70	-523.333
201.91	319.444
202.13	342.373
202.34	331.034
202.56	-860.000
202.77	451.111
202.99	2800.000
203.20	-2325.000
203.42	1550.000
203.63	230.263
203.85	4416.667
204.06	432.000
204.28	229.293
204.49	353.704
204.71	398.305
204.92	719.231
205.14	0.000
205.35	460.000
205.56	-510.000
205.78	5100.000
205.99	-1135.714
206.21	8650.000
206.42	615.909
206.64	732.258
206.85	514.815
207.07	-2055.556
207.28	281.034
207.50	454.348
207.71	738.710
207.93	228.916
208.14	-659.259
208.35	307.273
208.57	1016.000
208.78	-1911.111
209.00	310.638
209.21	-8300.000
209.43	-7066.667
209.64	-1606.667
209.86	278.351
210.07	316.279
210.28	326.761
210.50	882.759
210.71	425.490
210.93	215.441
211.14	316.854
211.36	1450.000
211.57	278.788
211.78	285.714
212.00	292.941
212.21	307.143
212.43	525.641
212.64	291.489
212.86	359.459
213.07	317.431
213.29	-630.556
213.50	210.870
213.71	229.885
213.93	276.829
214.14	1009.091
214.36	276.471
214.57	184.810
214.78	673.333
215.00	285.417
215.21	416.667
215.43	583.784
215.64	277.778
215.86	187.500
216.07	700.000
216.28	539.474
216.50	212.500
216.71	19200.000
216.93	369.697
217.14	1422.222
217.35	203.788
217.57	229.730
217.78	277.778
218.00	196.970
218.21	930.435
218.42	493.617
218.64	253.571
218.85	386.000
219.07	790.000
219.28	277.570
219.49	423.529
219.71	330.769
219.92	154.478
220.14	259.794
220.35	326.667
220.56	240.230
220.78	250.000
220.99	159.677
221.21	204.301
221.42	275.309
221.63	121.965
221.85	341.538
222.06	294.286
222.28	335.385
222.49	204.505
222.70	174.016
222.92	585.714
223.13	303.279
223.34	141.844
223.56	242.857
223.77	181.250
223.99	226.316
224.20	162.500
224.41	235.616
224.63	234.091
224.84	162.838
225.05	109.402
225.27	184.348
225.48	200.000
225.69	163.910
225.91	283.784
226.12	162.791
226.34	150.336
226.55	164.748
226.76	198.125
226.98	114.510
227.19	87.109
227.40	185.156
227.62	90.476
227.83	102.575
228.04	96.089
228.26	65.553
228.47	71.105
228.69	38.325
228.90	28.998
229.11	45.826
229.33	28.840
229.54	32.947
229.75	33.901
229.97	33.244
230.18	36.742
230.39	27.434
230.61	31.224
230.82	30.659
231.03	30.425
231.25	27.814
231.46	39.140
231.67	38.401
231.89	38.022
232.10	36.921
232.31	37.792
232.53	37.521
232.74	50.280
232.95	34.846
233.17	36.400
233.38	33.613
233.59	47.495
233.81	55.797
234.02	36.473
234.23	55.851
234.45	48.785
234.66	42.699
234.87	39.139
235.09	43.569
235.30	47.636
235.51	53.737
235.73	46.197
235.94	33.237
236.15	39.092
236.36	36.262
236.58	32.293
236.79	30.531
237.00	41.056
237.22	39.626
237.43	39.734
237.64	41.260
237.86	41.165
238.07	47.938
238.28	32.258
238.50	24.155
238.71	24.640
238.92	39.688
239.13	38.475
239.35	36.081
239.56	30.919
239.77	54.317
239.99	28.491
240.20	34.349
240.41	35.438
240.63	28.976
240.84	22.637
241.05	22.370
241.26	20.944
241.48	21.037
241.69	21.269
241.90	15.434
242.12	15.499
242.33	16.877
242.54	12.743
242.75	15.876
242.97	16.343
243.18	12.363
243.39	11.433
243.61	15.353
243.82	13.679
244.03	16.779
244.24	15.166
244.46	11.300
244.67	15.557
244.88	15.589
245.09	18.448
245.31	16.396
245.52	13.924
245.73	15.175
245.95	28.850
246.16	15.191
246.37	13.533
246.58	17.869
246.80	14.693
247.01	17.399
247.22	10.909
247.43	11.626
247.65	11.791
247.86	11.108
248.07	8.937
248.28	10.741
248.50	10.637
248.71	8.951
248.92	9.647
249.13	8.046
249.35	11.063
249.56	10.832
249.77	13.470
249.98	9.229
250.20	13.223
250.41	12.025
250.62	14.054
250.83	13.459
251.05	13.658
251.26	15.325
251.47	17.745
251.68	17.617
251.90	12.986
252.11	16.545
252.32	14.309
252.53	14.952
252.75	10.678
252.96	14.955
253.17	12.831
253.38	13.264
253.59	12.827
253.81	11.658
254.02	12.181
254.23	13.447
254.44	10.972
254.66	9.290
254.87	12.486
255.08	20.187
255.29	12.312
255.50	15.623
255.72	14.214
255.93	20.478
256.14	20.647
256.35	12.173
256.57	19.065
256.78	13.389
256.99	15.616
257.20	20.162
257.41	21.673
257.63	21.046
257.84	16.740
258.05	14.820
258.26	14.752
258.47	14.143
258.69	15.842
258.90	8.329
259.11	14.632
259.32	13.640
259.53	10.219
259.75	10.907
259.96	9.619
260.17	8.188
260.38	7.702
260.59	8.666
260.81	7.061
261.02	6.673
261.23	8.379
261.44	8.492
261.65	7.363
261.87	7.269
262.08	7.821
262.29	7.937
262.50	8.208
262.71	7.241
262.92	11.585
263.14	7.935
263.35	9.892
263.56	12.068
263.77	9.605
263.98	14.367
264.20	12.536
264.41	10.047
264.62	9.851
264.83	10.452
265.04	16.682
265.25	12.494
265.47	16.045
265.68	14.257
265.89	10.791
266.10	6.978
266.31	15.749
266.52	10.567
266.74	10.289
266.95	11.742
267.16	11.713
267.37	8.784
267.58	10.334
267.79	12.655
268.01	7.731
268.22	10.586
268.43	9.079
268.64	9.782
268.85	10.592
269.06	9.408
269.27	10.929
269.49	8.431
269.70	9.580
269.91	10.919
270.12	7.722
270.33	11.325
270.54	8.577
270.75	8.236
270.97	11.361
271.18	7.315
271.39	8.315
271.60	9.777
271.81	10.362
272.02	8.226
272.23	9.425
272.45	9.273
272.66	7.466
272.87	6.682
273.08	5.828
273.29	9.240
273.50	8.199
273.71	6.652
273.92	7.133
274.14	6.915
274.35	9.235
274.56	8.851
274.77	8.161
274.98	7.091
275.19	8.884
275.40	7.455
275.61	8.641
275.83	11.445
276.04	9.169
276.25	9.595
276.46	8.717
276.67	11.871
276.88	12.395
277.09	10.494
277.30	10.136
277.51	11.305
277.73	9.044
277.94	7.492
278.15	9.510
278.36	8.524
278.57	9.682
278.78	7.414
278.99	9.063
279.20	8.542
279.41	13.746
279.62	5.800
279.84	9.835
280.05	8.156
280.26	8.505
280.47	8.803
280.68	7.306
280.89	7.569
281.10	9.435
281.31	9.635
281.52	11.945
281.73	6.883
281.94	7.270
282.16	8.327
282.37	6.126
282.58	7.046
282.79	12.978
283.00	9.764
283.21	8.531
283.42	6.776
283.63	11.140
283.84	8.035
284.05	8.060
284.26	6.506
284.47	8.196
284.68	8.294
284.89	9.691
285.11	9.507
285.32	6.762
285.53	7.857
285.74	10.674
285.95	7.366
286.16	7.626
286.37	7.002
286.58	8.282
286.79	6.932
287.00	7.494
287.21	5.739
287.42	7.121
287.63	8.194
287.84	6.861
288.05	7.816
288.26	7.386
288.48	9.610
288.69	7.457
288.90	8.110
289.11	10.097
289.32	9.309
289.53	8.098
289.74	5.448
289.95	6.543
290.16	9.718
290.37	6.121
290.58	6.907
290.79	5.707
291.00	6.255
291.21	6.283
291.42	5.882
291.63	8.484
291.84	8.750
292.05	6.105
292.26	6.363
292.47	7.294
292.68	6.277
292.89	7.373
293.10	8.656
293.31	7.950
293.52	7.159
293.73	6.393
293.94	7.387
294.15	6.948
294.36	7.431
294.57	8.209
294.79	6.213
295.00	6.577
295.21	9.130
295.42	6.604
295.63	7.595
295.84	6.498
296.05	5.709
296.26	7.005
296.47	7.232
296.68	7.878
296.89	10.258
297.10	9.169
297.31	8.636
297.52	5.741
297.73	8.392
297.94	7.689
298.15	7.239
298.36	8.318
298.57	6.979
298.78	8.272
298.99	7.280
299.20	8.710
299.41	8.939
299.62	7.798
299.83	6.944
300.04	8.088
300.25	8.084
300.46	11.372
300.67	9.651
300.88	9.022
301.09	6.610
301.30	9.034
301.50	8.949
301.71	11.620
301.92	9.523
302.13	8.904
302.34	7.433
302.55	7.621
302.76	7.729
302.97	8.185
303.18	8.750
303.39	7.626
303.60	8.692
303.81	10.530
304.02	6.366
304.23	9.187
304.44	7.161
304.65	6.601
304.86	10.230
305.07	7.324
305.28	8.705
305.49	10.207
305.70	8.848
305.91	9.352
306.12	9.175
306.33	7.914
306.54	8.194
306.75	8.920
306.96	12.656
307.17	8.845
307.38	7.976
307.58	9.317
307.79	9.019
308.00	7.818
308.21	7.380
308.42	7.741
308.63	6.947
308.84	8.183
309.05	6.834
309.26	6.693
309.47	9.309
309.68	9.100
309.89	8.821
310.10	7.163
310.31	8.324
310.52	8.158
310.73	9.953
310.94	6.643
311.14	7.688
311.35	7.767
311.56	7.691
311.77	6.732
311.98	6.636
312.19	8.167
312.40	5.923
312.61	7.179
312.82	8.313
313.03	6.948
313.24	8.135
313.45	9.463
313.66	7.318
313.86	9.455
314.07	7.135
314.28	9.341
314.49	5.521
314.70	9.847
314.91	9.492
315.12	8.078
315.33	9.497
315.54	7.726
315.75	7.229
315.96	7.005
316.16	7.761
316.37	8.848
316.58	7.613
316.79	8.080
317.00	8.380
317.21	8.450
317.42	8.997
317.63	7.813
317.84	8.119
318.05	8.808
318.25	8.962
318.46	8.356
318.67	6.891
318.88	10.345
319.09	10.087
319.30	7.346
319.51	6.995
319.72	10.895
319.93	6.348
320.13	8.248
320.34	9.453
320.55	8.720
320.76	8.971
320.97	8.789
321.18	9.629
321.39	6.738
321.60	7.979
321.80	11.043
322.01	7.936
322.22	8.467
322.43	6.837
322.64	7.108
322.85	7.640
323.06	8.751
323.27	7.631
323.47	9.140
323.68	9.532
323.89	8.038
324.10	9.936
324.31	7.865
324.52	8.110
324.73	11.647
324.93	7.686
325.14	8.614
325.35	9.163
325.56	8.350
325.77	9.581
325.98	7.679
326.19	8.424
326.39	6.860
326.60	8.270
326.81	8.460
327.02	5.557
327.23	6.956
327.44	10.348
327.64	7.046
327.85	6.848
328.06	10.562
328.27	12.874
328.48	10.580
328.69	7.142
328.90	8.456
329.10	8.327
329.31	8.824
329.52	7.681
329.73	10.243
329.94	7.714
330.15	9.899
330.35	10.466
330.56	8.789
330.77	8.879
330.98	7.167
331.19	9.748
331.39	10.234
331.60	10.533
331.81	7.896
332.02	9.891
332.23	7.528
332.44	7.978
332.64	10.980
332.85	8.213
333.06	10.471
333.27	6.792
333.48	11.126
333.68	8.888
333.89	9.519
334.10	10.088
334.31	10.395
334.52	10.056
334.72	9.746
334.93	8.778
335.14	6.761
335.35	8.252
335.56	10.442
335.76	7.910
335.97	11.251
336.18	8.798
336.39	12.725
336.60	9.413
336.80	9.629
337.01	8.458
337.22	9.979
337.43	11.072
337.64	11.773
337.84	10.476
338.05	10.472
338.26	13.338
338.47	14.693
338.68	8.076
338.88	10.664
339.09	9.681
339.30	11.978
339.51	11.870
339.71	12.592
339.92	9.683
340.13	12.622
340.34	11.994
340.55	10.732
340.75	11.563
340.96	9.059
341.17	12.408
341.38	10.722
341.58	12.151
341.79	12.468
342.00	10.272
342.21	11.251
342.41	9.011
342.62	11.551
342.83	11.910
343.04	9.691
343.24	12.217
343.45	12.627
343.66	11.324
343.87	13.702
344.07	10.406
344.28	12.836
344.49	12.443
344.70	15.390
344.90	11.728
345.11	11.167
345.32	12.039
345.53	11.906
345.73	13.412
345.94	15.920
346.15	14.148
346.36	12.931
346.56	12.703
346.77	14.386
346.98	12.028
347.19	15.226
347.39	12.378
347.60	13.795
347.81	14.132
348.02	13.882
348.22	11.669
348.43	13.579
348.64	12.414
348.84	13.018
349.05	14.722
349.26	16.596
349.47	10.621
349.67	12.508
349.88	15.214
350.09	13.653
350.30	15.448
350.50	14.279
350.71	13.889
350.92	13.890
351.12	14.614
351.33	12.299
351.54	11.901
351.74	14.988
351.95	13.247
352.16	15.346
352.37	14.161
352.57	13.317
352.78	12.604
352.99	13.913
353.19	12.051
353.40	14.723
353.61	15.164
353.82	15.923
354.02	14.652
354.23	14.530
354.44	16.702
354.64	14.264
354.85	14.923
355.06	13.422
355.26	13.095
355.47	13.942
355.68	15.492
355.88	16.007
356.09	15.003
356.30	14.697
356.51	16.499
356.71	15.173
356.92	13.384
357.13	16.762
357.33	16.911
357.54	15.936
357.75	10.854
357.95	16.416
358.16	13.560
358.37	16.630
358.57	13.995
358.78	16.484
358.99	14.853
359.19	14.604
359.40	15.727
359.61	14.732
359.81	15.087
360.02	18.004
360.23	13.724
360.43	14.226
360.64	13.544
360.85	15.601
361.05	12.964
361.26	17.007
361.47	14.413
361.67	16.376
361.88	13.241
362.09	15.882
362.29	13.451
362.50	14.465
362.70	12.919
362.91	15.470
363.12	13.612
363.32	15.780
363.53	14.942
363.74	15.008
363.94	13.553
364.15	17.055
364.36	15.730
364.56	13.774
364.77	14.313
364.98	15.649
365.18	14.040
365.39	15.932
365.59	12.534
365.80	14.532
366.01	14.812
366.21	13.475
366.42	12.514
366.63	15.592
366.83	11.510
367.04	11.777
367.24	15.226
367.45	13.158
367.66	11.890
367.86	14.650
368.07	12.398
368.28	13.988
368.48	13.161
368.69	12.042
368.89	13.119
369.10	14.594
369.31	12.542
369.51	13.811
369.72	14.948
369.92	16.082
370.13	13.023
370.34	13.886
370.54	9.512
370.75	13.560
370.95	11.706
371.16	13.306
371.37	12.773
371.57	13.430
371.78	12.271
371.98	13.942
372.19	12.815
372.40	14.478
372.60	13.735
372.81	14.255
373.01	11.451
373.22	12.297
373.43	13.222
373.63	14.227
373.84	12.730
374.04	13.239
374.25	12.241
374.46	14.063
374.66	13.212
374.87	14.508
375.07	10.024
375.28	11.949
375.48	12.349
375.69	13.178
375.90	10.382
376.10	11.113
376.31	11.566
376.51	11.764
376.72	11.625
376.92	11.348
377.13	12.693
377.34	12.753
377.54	11.059
377.75	13.992
377.95	12.268
378.16	14.249
378.36	13.000
378.57	14.217
378.77	12.366
378.98	13.245
379.19	11.752
379.39	11.062
379.60	12.003
379.80	12.067
380.01	13.176
380.21	11.061
380.42	11.481
380.62	11.950
380.83	12.384
381.04	11.737
381.24	12.230
381.45	11.687
381.65	10.533
381.86	11.798
382.06	12.762
382.27	9.872
382.47	10.423
382.68	12.970
382.88	9.935
383.09	10.786
383.29	11.639
383.50	12.681
383.71	10.341
383.91	11.780
384.12	11.015
384.32	12.229
384.53	11.571
384.73	9.483
384.94	11.089
385.14	11.194
385.35	10.653
385.55	12.053
385.76	10.205
385.96	10.906
386.17	11.648
386.37	12.427
386.58	11.621
386.78	12.611
386.99	10.123
387.19	12.204
387.40	10.038
387.60	13.209
387.81	10.348
388.01	11.379
388.22	11.369
388.42	12.551
388.63	12.295
388.83	13.579
389.04	8.992
389.24	10.865
389.45	11.121
389.65	11.264
389.86	10.924
390.06	10.607
390.27	10.448
390.47	10.395
390.68	9.807
390.88	12.132
391.09	11.668
391.29	11.775
391.50	10.975
391.70	11.293
391.91	10.490
392.11	10.715
392.32	11.261
392.52	11.985
392.73	10.797
392.93	12.300
393.14	10.912
393.34	10.367
393.55	11.128
393.75	11.331
393.95	11.065
394.16	11.113
394.36	11.563
394.57	11.988
394.77	10.325
394.98	10.645
395.18	11.436
395.39	11.386
395.59	11.157
395.80	11.174
396.00	10.712
396.21	11.937
396.41	10.067
396.61	11.478
396.82	10.567
397.02	12.901
397.23	10.943
397.43	10.860
397.64	8.908
397.84	11.454
398.05	9.664
398.25	11.098
398.45	10.421
398.66	10.582
398.86	10.437
399.07	11.823
399.27	10.374
399.48	11.860
399.68	10.313
399.89	10.621
400.09	10.529
400.29	9.971
400.50	9.954
400.70	11.173
400.91	9.501
401.11	10.585
401.32	10.873
401.52	9.227
401.72	10.205
401.93	11.922
402.13	9.781
402.34	10.368
402.54	9.456
402.75	12.174
402.95	8.177
403.15	11.754
403.36	8.376
403.56	10.879
403.77	9.900
403.97	9.799
404.17	9.303
404.38	11.302
404.58	9.390
404.79	10.749
404.99	10.417
405.19	11.027
405.40	9.690
405.60	10.451
405.81	9.348
406.01	10.279
406.21	9.962
406.42	10.694
406.62	10.257
406.83	10.972
407.03	11.324
407.23	9.631
407.44	9.155
407.64	10.731
407.85	10.224
408.05	9.576
408.25	9.540
408.46	10.760
408.66	10.029
408.87	9.895
409.07	9.278
409.27	9.004
409.48	9.077
409.68	10.453
409.88	7.621
410.09	9.855
410.29	9.619
410.50	11.173
410.70	9.030
410.90	9.686
411.11	8.675
411.31	9.760
411.51	9.790
411.72	10.093
411.92	8.556
412.12	10.283
412.33	9.103
412.53	9.202
412.74	7.873
412.94	9.831
413.14	8.995
413.35	9.742
413.55	9.264
413.75	10.163
413.96	8.765
414.16	9.815
414.36	8.980
414.57	10.064
414.77	9.021
414.97	9.427
415.18	8.638
415.38	9.804
415.58	9.420
415.79	8.701
415.99	8.500
416.19	10.485
416.40	9.457
416.60	10.157
416.80	9.167
417.01	9.837
417.21	8.256
417.41	9.837
417.62	9.510
417.82	10.093
418.02	8.992
418.23	9.990
418.43	9.626
418.63	10.548
418.84	10.026
419.04	9.790
419.24	10.420
419.45	10.801
419.65	10.179
419.85	10.294
420.06	9.703
420.26	10.567
420.46	10.206
420.67	10.616
420.87	10.278
421.07	10.686
421.28	10.318
421.48	10.527
421.68	10.494
421.88	10.723
422.09	10.435
422.29	10.684
422.49	9.810
422.70	10.432
422.90	10.474
423.10	10.319
423.31	10.434
423.51	10.289
423.71	10.088
423.91	10.757
424.12	10.390
424.32	10.480
424.52	10.158
424.73	10.206
424.93	10.277
425.13	10.442
425.33	9.960
425.54	10.430
425.74	10.115
425.94	10.878
426.15	10.711
426.35	10.476
426.55	10.293
426.75	10.630
426.96	10.300
427.16	10.171
427.36	9.993
427.57	10.435
427.77	9.297
427.97	10.276
428.17	10.202
428.38	10.483
428.58	8.579
428.78	10.109
428.98	8.869
429.19	8.461
429.39	8.465
429.59	9.604
429.79	8.378
430.00	8.615
430.20	8.298
430.40	9.199
430.60	9.332
430.81	8.796
431.01	8.684
431.21	9.245
431.41	7.667
431.62	9.530
431.82	8.324
432.02	9.708
432.22	8.202
432.43	9.130
432.63	8.504
432.83	9.597
433.03	9.048
433.24	8.619
433.44	8.625
433.64	9.468
433.84	8.408
434.05	9.686
434.25	9.458
434.45	9.634
434.65	9.623
434.85	9.905
435.06	9.806
435.26	9.490
435.46	9.253
435.66	10.019
435.87	9.235
436.07	9.418
436.27	9.441
436.47	9.054
436.67	8.941
436.88	9.341
437.08	8.961
437.28	9.014
437.48	9.076
437.69	9.732
437.89	9.075
438.09	10.045
438.29	9.035
438.49	9.774
438.70	9.275
438.90	8.837
439.10	8.620
439.30	9.230
439.50	8.629
439.71	9.756
439.91	9.020
440.11	10.139
440.31	9.527
440.51	9.470
440.72	9.107
440.92	9.612
441.12	9.655
441.32	10.155
441.52	9.855
441.72	9.674
441.93	9.499
442.13	9.880
442.33	9.536
442.53	9.996
442.73	8.925
442.94	9.736
443.14	9.425
443.34	10.136
443.54	9.283
443.74	9.710
443.94	9.058
444.15	9.258
444.35	9.133
444.55	9.708
444.75	9.054
444.95	9.231
445.15	9.246
445.36	9.303
445.56	8.711
445.76	9.328
445.96	9.086
446.16	9.499
446.36	9.044
446.57	9.757
446.77	8.980
446.97	9.435
447.17	9.738
447.37	9.787
447.57	9.717
447.77	9.714
447.98	9.761
448.18	9.750
448.38	9.281
448.58	9.856
448.78	9.831
448.98	9.735
449.18	9.386
449.39	9.616
449.59	9.184
449.79	9.578
449.99	9.089
450.19	9.495
450.39	9.090
450.59	9.266
450.79	8.822
451.00	9.467
451.20	9.684
451.40	9.266
451.60	8.737
451.80	9.296
452.00	8.350
452.20	9.581
452.40	8.556
452.61	8.777
452.81	8.881
453.01	9.039
453.21	8.593
453.41	9.177
453.61	9.080
453.81	8.969
454.01	8.794
454.21	9.397
454.42	9.713
454.62	9.575
454.82	8.745
455.02	9.064
455.22	8.468
455.42	8.937
455.62	7.805
455.82	9.163
456.02	8.666
456.23	9.162
456.43	8.035
456.63	8.896
456.83	7.892
457.03	9.025
457.23	8.392
457.43	9.017
457.63	8.595
457.83	8.728
458.03	8.557
458.23	9.224
458.43	8.139
458.64	9.090
458.84	9.147
459.04	8.856
459.24	9.120
459.44	9.414
459.64	8.752
459.84	9.164
460.04	9.435
460.24	9.400
460.44	9.231
460.64	9.135
460.84	9.563
461.04	9.437
461.24	9.650
461.45	9.789
461.65	9.554
461.85	9.771
462.05	9.441
462.25	9.766
462.45	9.648
462.65	9.632
462.85	8.382
463.05	9.574
463.25	7.893
463.45	9.425
463.65	8.889
463.85	9.252
464.05	8.979
464.25	9.218
464.45	8.662
464.65	8.717
464.85	8.141
465.05	9.202
465.26	9.238
465.46	9.128
465.66	8.673
465.86	8.515
466.06	8.722
466.26	8.931
466.46	8.084
466.66	9.063
466.86	8.579
467.06	8.686
467.26	9.131
467.46	9.329
467.66	8.929
467.86	9.018
468.06	8.841
468.26	8.968
468.46	8.846
468.66	8.780
468.86	8.168
469.06	8.967
469.26	7.770
469.46	8.640
469.66	8.034
469.86	9.019
470.06	8.207
470.26	9.455
470.46	8.142
470.66	9.178
470.86	8.123
