SpectraSuite Data File
++++++++++++++++++++++++++++++++++++
Date: Mon Sep 23 03:41:29 EST 2019
User: sgrac
Dark Spectrum Present: Yes
Reference Spectrum Present: Yes
Number of Sampled Component Spectra: 1
Spectrometers: USB4E01596
Integration Time (usec): 100000 (USB4E01596)
Spectra Averaged: 3 (USB4E01596)
Boxcar Smoothing: 0 (USB4E01596)
Correct for Electrical Dark: No (USB4E01596)
Strobe/Lamp Enabled: Yes (USB4E01596)
Correct for Detector Non-linearity: No (USB4E01596)
Correct for Stray Light: No (USB4E01596)
Number of Pixels in Processed Spectrum: 3648
>>>>>Begin Processed Spectral Data<<<<<
178.44	1692.308
178.66	1692.308
178.87	1692.308
179.09	8000.000
179.30	-5025.000
179.52	-638.710
179.74	-400.000
179.95	681.818
180.17	-575.000
180.38	387.719
180.60	-2454.545
180.82	615.556
181.03	4633.333
181.25	-1691.667
181.46	-1200.000
181.68	1083.333
181.89	-661.364
182.11	-1712.500
182.33	-1431.250
182.54	570.833
182.76	4950.000
182.97	-446.809
183.19	1270.000
183.40	251.240
183.62	348.718
183.84	330.909
184.05	4042.857
184.27	459.091
184.48	454.545
184.70	1847.059
184.91	1433.333
185.13	2390.000
185.34	-17950.000
185.56	1084.615
185.78	358.333
185.99	827.778
186.21	330.682
186.42	-7000.000
186.64	1850.000
186.85	-4440.000
187.07	462.000
187.28	373.684
187.50	481.818
187.72	348.718
187.93	661.818
188.15	384.375
188.36	438.158
188.58	504.082
188.79	310.577
189.01	442.254
189.22	754.054
189.44	-842.424
189.65	317.797
189.87	-6450.000
190.09	471.429
190.30	773.810
190.52	516.667
190.73	706.522
190.95	-4016.667
191.16	365.476
191.38	366.216
191.59	433.824
191.81	438.710
192.02	1960.000
192.24	759.375
192.45	923.529
192.67	-1343.750
192.88	560.377
193.10	426.230
193.31	675.000
193.53	262.903
193.74	348.000
193.96	1650.000
194.18	896.154
194.39	2260.000
194.61	501.370
194.82	1350.000
195.04	284.146
195.25	-433.333
195.47	-383.333
195.68	3433.333
195.90	472.727
196.11	489.552
196.33	23200.000
196.54	641.463
196.76	1928.571
196.97	428.571
197.19	808.108
197.40	1700.000
197.62	230.275
197.83	896.774
198.05	594.545
198.26	751.724
198.48	440.845
198.69	480.000
198.91	1100.000
199.12	586.047
199.34	610.870
199.55	410.000
199.77	1700.000
199.98	826.471
200.20	431.579
200.41	506.452
200.63	329.204
200.84	2242.857
201.06	3033.333
201.27	736.585
201.49	447.887
201.70	-726.667
201.91	429.167
202.13	501.695
202.34	531.034
202.56	-1032.000
202.77	726.667
202.99	4633.333
203.20	-3100.000
203.42	2100.000
203.63	334.211
203.85	4683.333
204.06	512.000
204.28	247.475
204.49	481.481
204.71	405.085
204.92	857.692
205.14	0.000
205.35	930.000
205.56	-1145.000
205.78	6100.000
205.99	-1885.714
206.21	14650.000
206.42	697.727
206.64	877.419
206.85	896.296
207.07	-2711.111
207.28	493.103
207.50	673.913
207.71	796.774
207.93	356.627
208.14	-896.296
208.35	409.091
208.57	1236.000
208.78	-2844.444
209.00	312.766
209.21	-13800.000
209.43	-7166.667
209.64	-1573.333
209.86	262.887
210.07	377.907
210.28	418.310
210.50	934.483
210.71	478.431
210.93	206.618
211.14	376.404
211.36	1756.250
211.57	478.788
211.78	394.286
212.00	342.353
212.21	372.857
212.43	794.872
212.64	337.234
212.86	416.216
213.07	359.633
213.29	-527.778
213.50	297.826
213.71	356.322
213.93	326.829
214.14	1663.636
214.36	373.529
214.57	327.848
214.78	811.111
215.00	323.958
215.21	926.667
215.43	764.865
215.64	474.603
215.86	277.500
216.07	874.286
216.28	642.105
216.50	297.500
216.71	23200.000
216.93	521.212
217.14	1866.667
217.35	241.667
217.57	309.910
217.78	286.420
218.00	252.525
218.21	1291.304
218.42	636.170
218.64	337.500
218.85	456.000
219.07	1075.000
219.28	226.168
219.49	531.373
219.71	473.846
219.92	196.269
220.14	324.742
220.35	420.000
220.56	298.851
220.78	283.654
220.99	256.452
221.21	327.957
221.42	390.123
221.63	189.017
221.85	509.231
222.06	420.000
222.28	329.231
222.49	229.730
222.70	223.622
222.92	536.735
223.13	491.803
223.34	220.567
223.56	321.429
223.77	287.500
223.99	310.526
224.20	253.571
224.41	404.110
224.63	238.636
224.84	205.405
225.05	126.068
225.27	241.739
225.48	297.059
225.69	251.128
225.91	368.919
226.12	200.000
226.34	193.960
226.55	132.374
226.76	210.625
226.98	136.078
227.19	114.062
227.40	237.500
227.62	132.804
227.83	104.721
228.04	94.972
228.26	74.807
228.47	85.552
228.69	55.330
228.90	44.563
229.11	55.026
229.33	47.179
229.54	38.224
229.75	39.716
229.97	38.358
230.18	42.809
230.39	27.876
230.61	36.203
230.82	33.653
231.03	24.427
231.25	33.894
231.46	38.009
231.67	43.512
231.89	47.493
232.10	40.676
232.31	46.812
232.53	43.973
232.74	59.252
232.95	43.376
233.17	43.600
233.38	33.613
233.59	58.813
233.81	63.587
234.02	43.086
234.23	56.028
234.45	63.542
234.66	46.239
234.87	55.328
235.09	57.556
235.30	42.907
235.51	53.381
235.73	63.265
235.94	48.911
236.15	44.217
236.36	37.009
236.58	41.030
236.79	46.018
237.00	45.601
237.22	53.912
237.43	43.427
237.64	50.709
237.86	43.609
238.07	44.330
238.28	44.355
238.50	45.101
238.71	42.806
238.92	48.281
239.13	53.559
239.35	44.790
239.56	47.527
239.77	53.218
239.99	39.492
240.20	45.429
240.41	38.451
240.63	36.792
240.84	34.950
241.05	33.736
241.26	31.957
241.48	27.236
241.69	25.112
241.90	22.275
242.12	18.967
242.33	23.529
242.54	13.842
242.75	19.449
242.97	15.712
243.18	12.961
243.39	13.407
243.61	13.693
243.82	12.418
244.03	14.446
244.24	11.131
244.46	12.816
244.67	14.020
244.88	16.040
245.09	19.168
245.31	19.815
245.52	18.324
245.73	18.198
245.95	29.175
246.16	17.326
246.37	15.290
246.58	16.482
246.80	16.092
247.01	13.946
247.22	13.308
247.43	11.292
247.65	8.368
247.86	8.066
248.07	7.976
248.28	8.246
248.50	9.032
248.71	7.975
248.92	7.570
249.13	7.637
249.35	8.462
249.56	9.432
249.77	9.507
249.98	10.140
250.20	11.570
250.41	12.716
250.62	14.771
250.83	15.612
251.05	16.541
251.26	15.686
251.47	15.500
251.68	17.561
251.90	18.812
252.11	12.652
252.32	18.405
252.53	14.255
252.75	14.528
252.96	17.869
253.17	14.157
253.38	14.939
253.59	14.572
253.81	11.658
254.02	13.914
254.23	12.391
254.44	10.088
254.66	12.787
254.87	12.818
255.08	21.179
255.29	16.834
255.50	18.071
255.72	17.071
255.93	22.646
256.14	26.194
256.35	17.026
256.57	20.745
256.78	22.800
256.99	22.973
257.20	28.065
257.41	17.589
257.63	21.381
257.84	20.327
258.05	15.851
258.26	13.362
258.47	15.423
258.69	16.832
258.90	9.935
259.11	11.490
259.32	13.115
259.53	9.290
259.75	9.239
259.96	10.278
260.17	8.585
260.38	5.758
260.59	7.407
260.81	6.480
261.02	5.797
261.23	5.322
261.44	7.211
261.65	5.024
261.87	5.485
262.08	7.015
262.29	7.185
262.50	6.813
262.71	6.377
262.92	8.060
263.14	9.866
263.35	8.875
263.56	10.155
263.77	10.282
263.98	12.906
264.20	10.621
264.41	11.537
264.62	13.573
264.83	12.860
265.04	14.427
265.25	13.664
265.47	11.052
265.68	13.907
265.89	13.397
266.10	8.256
266.31	11.691
266.52	11.421
266.74	11.395
266.95	10.690
267.16	13.147
267.37	6.789
267.58	11.726
267.79	11.630
268.01	6.651
268.22	11.424
268.43	10.538
268.64	8.790
268.85	11.848
269.06	9.883
269.27	11.055
269.49	6.830
269.70	8.924
269.91	11.507
270.12	7.365
270.33	9.677
270.54	6.593
270.75	11.084
270.97	10.121
271.18	7.411
271.39	9.801
271.60	11.875
271.81	9.350
272.02	8.316
272.23	8.804
272.45	8.953
272.66	7.024
272.87	5.525
273.08	5.803
273.29	8.653
273.50	6.150
273.71	6.555
273.92	6.434
274.14	7.084
274.35	8.359
274.56	6.450
274.77	6.650
274.98	8.857
275.19	7.488
275.40	10.629
275.61	7.863
275.83	10.983
276.04	7.479
276.25	10.147
276.46	7.772
276.67	7.575
276.88	10.350
277.09	8.981
277.30	10.167
277.51	9.260
277.73	6.508
277.94	8.812
278.15	11.577
278.36	7.302
278.57	8.696
278.78	6.912
278.99	8.631
279.20	8.028
279.41	11.917
279.62	7.955
279.84	7.501
280.05	10.063
280.26	10.200
280.47	10.450
280.68	6.667
280.89	9.143
281.10	8.958
281.31	8.189
281.52	9.940
281.73	7.622
281.94	7.189
282.16	7.659
282.37	5.677
282.58	6.370
282.79	10.596
283.00	8.091
283.21	6.689
283.42	6.602
283.63	7.563
283.84	6.223
284.05	6.988
284.26	6.888
284.47	7.416
284.68	6.268
284.89	7.120
285.11	7.485
285.32	4.887
285.53	7.217
285.74	9.062
285.95	5.137
286.16	6.611
286.37	5.835
286.58	5.991
286.79	4.772
287.00	5.350
287.21	6.233
287.42	4.563
287.63	6.345
287.84	6.173
288.05	4.542
288.26	4.937
288.48	6.426
288.69	4.951
288.90	6.717
289.11	7.341
289.32	8.194
289.53	7.573
289.74	6.345
289.95	8.184
290.16	6.879
290.37	4.643
290.58	6.177
290.79	5.581
291.00	5.223
291.21	5.620
291.42	5.264
291.63	7.123
291.84	6.327
292.05	4.667
292.26	5.781
292.47	6.426
292.68	5.162
292.89	7.120
293.10	7.378
293.31	6.614
293.52	5.500
293.73	7.447
293.94	5.750
294.15	6.788
294.36	8.523
294.57	6.352
294.79	7.169
295.00	5.734
295.21	7.188
295.42	6.216
295.63	8.444
295.84	5.157
296.05	4.149
296.26	4.657
296.47	5.419
296.68	7.426
296.89	9.128
297.10	6.002
297.31	6.357
297.52	3.698
297.73	6.873
297.94	5.464
298.15	4.899
298.36	4.843
298.57	4.722
298.78	5.423
298.99	5.420
299.20	5.684
299.41	5.843
299.62	7.003
299.83	5.204
300.04	5.894
300.25	6.896
300.46	7.711
300.67	7.247
300.88	6.490
301.09	6.771
301.30	6.413
301.50	8.074
301.71	8.858
301.92	7.457
302.13	6.890
302.34	5.837
302.55	5.655
302.76	6.129
302.97	6.490
303.18	6.708
303.39	5.914
303.60	5.664
303.81	6.985
304.02	5.670
304.23	8.542
304.44	6.388
304.65	3.769
304.86	8.385
305.07	6.254
305.28	6.007
305.49	7.515
305.70	7.601
305.91	7.103
306.12	6.850
306.33	5.909
306.54	6.027
306.75	7.704
306.96	9.722
307.17	6.633
307.38	7.583
307.58	6.627
307.79	6.808
308.00	5.852
308.21	7.044
308.42	6.510
308.63	6.315
308.84	6.887
309.05	5.603
309.26	3.908
309.47	7.274
309.68	6.740
309.89	7.146
310.10	6.600
310.31	5.860
310.52	4.556
310.73	7.257
310.94	4.720
311.14	6.590
311.35	5.402
311.56	5.641
311.77	4.908
311.98	4.823
312.19	4.818
312.40	3.783
312.61	4.317
312.82	6.513
313.03	4.928
313.24	7.007
313.45	5.770
313.66	5.220
313.86	6.702
314.07	5.458
314.28	6.688
314.49	5.579
314.70	8.294
314.91	7.874
315.12	6.584
315.33	7.285
315.54	5.248
315.75	6.379
315.96	5.259
316.16	6.804
316.37	5.036
316.58	5.240
316.79	7.080
317.00	5.989
317.21	6.694
317.42	6.181
317.63	5.758
317.84	6.461
318.05	7.770
318.25	8.001
318.46	6.525
318.67	5.955
318.88	6.876
319.09	7.761
319.30	5.552
319.51	7.699
319.72	7.753
319.93	5.950
320.13	6.124
320.34	7.053
320.55	9.375
320.76	6.427
320.97	6.155
321.18	8.752
321.39	4.882
321.60	7.600
321.80	7.649
322.01	5.619
322.22	6.239
322.43	6.411
322.64	6.856
322.85	7.827
323.06	9.174
323.27	6.459
323.47	8.410
323.68	7.707
323.89	7.580
324.10	8.517
324.31	6.389
324.52	7.267
324.73	8.353
324.93	6.686
325.14	5.824
325.35	7.201
325.56	5.198
325.77	6.548
325.98	7.142
326.19	6.663
326.39	5.613
326.60	6.384
326.81	5.469
327.02	4.957
327.23	5.925
327.44	7.287
327.64	5.521
327.85	3.890
328.06	6.504
328.27	8.912
328.48	6.381
328.69	5.426
328.90	6.366
329.10	6.942
329.31	6.366
329.52	6.346
329.73	9.221
329.94	5.867
330.15	7.611
330.35	9.613
330.56	7.131
330.77	6.548
330.98	5.641
331.19	6.085
331.39	8.139
331.60	6.834
331.81	6.085
332.02	6.735
332.23	6.056
332.44	7.140
332.64	7.228
332.85	5.957
333.06	7.666
333.27	5.931
333.48	7.666
333.68	5.283
333.89	6.662
334.10	6.291
334.31	6.390
334.52	7.538
334.72	5.894
334.93	5.082
335.14	5.816
335.35	6.097
335.56	6.168
335.76	5.979
335.97	6.273
336.18	7.283
336.39	8.489
336.60	5.629
336.80	5.543
337.01	5.194
337.22	6.291
337.43	7.481
337.64	8.963
337.84	7.001
338.05	5.420
338.26	9.555
338.47	8.977
338.68	6.389
338.88	7.362
339.09	6.033
339.30	7.238
339.51	7.056
339.71	8.004
339.92	6.139
340.13	7.123
340.34	8.302
340.55	7.775
340.75	9.430
340.96	6.481
341.17	8.570
341.38	7.653
341.58	7.395
341.79	7.602
342.00	6.701
342.21	7.149
342.41	6.780
342.62	7.305
342.83	7.616
343.04	6.173
343.24	9.011
343.45	8.544
343.66	6.354
343.87	8.075
344.07	6.577
344.28	8.931
344.49	9.008
344.70	9.792
344.90	7.716
345.11	6.397
345.32	8.554
345.53	8.596
345.73	8.303
345.94	10.299
346.15	9.870
346.36	8.536
346.56	9.446
346.77	11.106
346.98	9.223
347.19	11.051
347.39	9.291
347.60	9.051
347.81	8.799
348.02	10.354
348.22	7.722
348.43	10.561
348.64	8.746
348.84	9.800
349.05	11.392
349.26	12.520
349.47	9.823
349.67	11.047
349.88	11.438
350.09	12.255
350.30	12.560
350.50	11.442
350.71	11.686
350.92	12.120
351.12	12.662
351.33	10.816
351.54	11.932
351.74	12.676
351.95	10.699
352.16	13.311
352.37	11.694
352.57	11.625
352.78	10.732
352.99	12.250
353.19	12.480
353.40	12.435
353.61	13.631
353.82	12.938
354.02	13.394
354.23	14.245
354.44	16.885
354.64	12.974
354.85	13.709
355.06	13.060
355.26	11.864
355.47	12.187
355.68	12.361
355.88	15.866
356.09	15.271
356.30	13.509
356.51	14.384
356.71	13.579
356.92	11.081
357.13	14.744
357.33	14.892
357.54	13.803
357.75	11.396
357.95	14.321
358.16	11.842
358.37	16.008
358.57	12.567
358.78	16.854
358.99	13.343
359.19	13.018
359.40	14.168
359.61	13.864
359.81	15.317
360.02	17.301
360.23	12.455
360.43	13.133
360.64	12.509
360.85	13.400
361.05	12.525
361.26	14.603
361.47	13.418
361.67	15.116
361.88	11.303
362.09	15.100
362.29	12.495
362.50	13.075
362.70	12.041
362.91	14.821
363.12	12.026
363.32	13.914
363.53	13.796
363.74	14.171
363.94	11.767
364.15	15.173
364.36	15.261
364.56	12.874
364.77	14.123
364.98	15.212
365.18	13.197
365.39	15.509
365.59	12.687
365.80	13.805
366.01	14.379
366.21	13.219
366.42	11.662
366.63	15.525
366.83	11.788
367.04	11.677
367.24	14.706
367.45	12.473
367.66	12.035
367.86	15.017
368.07	12.489
368.28	12.928
368.48	12.566
368.69	11.534
368.89	12.765
369.10	13.327
369.31	12.473
369.51	12.892
369.72	14.508
369.92	15.226
370.13	10.485
370.34	12.980
370.54	10.073
370.75	12.752
370.95	10.243
371.16	13.526
371.37	12.417
371.57	12.817
371.78	12.195
371.98	13.665
372.19	12.697
372.40	14.468
372.60	13.496
372.81	13.619
373.01	10.765
373.22	11.183
373.43	12.769
373.63	12.351
373.84	14.034
374.04	11.947
374.25	11.902
374.46	13.699
374.66	12.167
374.87	13.671
375.07	10.153
375.28	11.010
375.48	11.541
375.69	12.692
375.90	9.574
376.10	11.082
376.31	11.886
376.51	10.579
376.72	11.080
376.92	10.720
377.13	12.514
377.34	12.271
377.54	11.621
377.75	12.533
377.95	11.320
378.16	12.730
378.36	11.899
378.57	13.438
378.77	11.501
378.98	12.939
379.19	11.258
379.39	10.869
379.60	11.534
379.80	10.826
380.01	11.280
380.21	11.127
380.42	12.972
380.62	11.950
380.83	11.049
381.04	11.271
381.24	11.613
381.45	11.334
381.65	9.480
381.86	11.648
382.06	11.383
382.27	9.577
382.47	10.016
382.68	12.340
382.88	9.261
383.09	10.055
383.29	10.594
383.50	12.516
383.71	10.196
383.91	10.842
384.12	10.712
384.32	10.965
384.53	9.932
384.73	9.456
384.94	9.115
385.14	10.569
385.35	9.520
385.55	11.771
385.76	9.439
385.96	10.061
386.17	10.883
386.37	11.018
386.58	10.887
386.78	11.081
386.99	9.154
387.19	11.389
387.40	9.980
387.60	12.168
387.81	9.780
388.01	10.774
388.22	10.615
388.42	11.878
388.63	11.520
388.83	11.516
389.04	8.403
389.24	10.522
389.45	10.272
389.65	10.297
389.86	10.018
390.06	9.371
390.27	9.439
390.47	9.794
390.68	10.010
390.88	11.414
391.09	11.469
391.29	10.935
391.50	9.794
391.70	9.834
391.91	10.295
392.11	9.794
392.32	9.368
392.52	10.938
392.73	9.821
392.93	10.624
393.14	9.949
393.34	9.511
393.55	10.494
393.75	9.861
393.95	10.321
394.16	10.772
394.36	10.748
394.57	11.380
394.77	9.774
394.98	9.984
395.18	10.063
395.39	10.028
395.59	9.909
395.80	10.651
396.00	10.175
396.21	11.050
396.41	8.696
396.61	11.390
396.82	10.297
397.02	11.562
397.23	10.346
397.43	9.595
397.64	8.496
397.84	11.072
398.05	7.883
398.25	10.335
398.45	9.284
398.66	9.618
398.86	9.746
399.07	10.678
399.27	9.041
399.48	10.408
399.68	8.922
399.89	9.932
400.09	9.770
400.29	8.702
400.50	9.515
400.70	10.007
400.91	9.017
401.11	9.166
401.32	9.564
401.52	7.939
401.72	9.007
401.93	11.101
402.13	9.332
402.34	9.180
402.54	8.273
402.75	11.211
402.95	7.751
403.15	10.357
403.36	8.475
403.56	10.584
403.77	8.666
403.97	8.571
404.17	8.638
404.38	10.122
404.58	8.780
404.79	9.785
404.99	9.443
405.19	9.293
405.40	8.479
405.60	9.327
405.81	8.792
406.01	8.939
406.21	8.862
406.42	9.715
406.62	8.653
406.83	9.790
407.03	9.764
407.23	8.556
407.44	8.321
407.64	10.075
407.85	8.923
408.05	9.092
408.25	8.650
408.46	9.800
408.66	9.503
408.87	8.539
409.07	8.661
409.27	7.869
409.48	8.472
409.68	9.324
409.88	6.941
410.09	8.924
410.29	9.164
410.50	10.414
410.70	7.671
410.90	7.978
411.11	8.215
411.31	8.286
411.51	8.862
411.72	10.086
411.92	7.721
412.12	8.890
412.33	7.774
412.53	7.615
412.74	6.978
412.94	8.521
413.14	8.827
413.35	9.115
413.55	9.207
413.75	9.913
413.96	7.710
414.16	8.674
414.36	7.727
414.57	8.525
414.77	8.100
414.97	8.784
415.18	8.307
415.38	8.828
415.58	8.132
415.79	7.822
415.99	7.272
416.19	9.336
416.40	8.099
416.60	7.824
416.80	8.169
417.01	8.921
417.21	6.926
417.41	9.038
417.62	8.035
417.82	9.032
418.02	7.281
418.23	8.427
418.43	7.856
418.63	8.790
418.84	8.982
419.04	8.408
419.24	8.667
419.45	8.701
419.65	8.978
419.85	9.159
420.06	8.973
420.26	9.247
420.46	8.704
420.67	8.879
420.87	9.087
421.07	9.101
421.28	8.623
421.48	9.745
421.68	9.064
421.88	9.321
422.09	9.101
422.29	9.120
422.49	8.452
422.70	8.560
422.90	8.889
423.10	9.173
423.31	9.084
423.51	9.022
423.71	8.585
423.91	9.437
424.12	9.457
424.32	9.221
424.52	8.519
424.73	8.705
424.93	8.763
425.13	8.686
425.33	8.277
425.54	8.774
425.74	8.623
425.94	9.189
426.15	9.025
426.35	8.919
426.55	9.002
426.75	9.011
426.96	8.771
427.16	8.497
427.36	8.493
427.57	9.169
427.77	8.630
427.97	8.697
428.17	9.040
428.38	8.894
428.58	7.636
428.78	8.952
428.98	7.459
429.19	8.110
429.39	7.721
429.59	8.445
429.79	7.203
430.00	7.280
430.20	7.118
430.40	7.980
430.60	7.966
430.81	7.883
431.01	7.381
431.21	8.479
431.41	6.495
431.62	7.847
431.82	7.832
432.02	8.257
432.22	7.227
432.43	8.196
432.63	7.079
432.83	7.918
433.03	7.322
433.24	7.529
433.44	7.118
433.64	8.340
433.84	7.693
434.05	8.362
434.25	7.912
434.45	8.673
434.65	8.671
434.85	8.644
435.06	8.330
435.26	8.033
435.46	7.903
435.66	8.285
435.87	8.356
436.07	8.247
436.27	7.927
436.47	7.516
436.67	7.192
436.88	8.006
437.08	7.540
437.28	7.592
437.48	7.167
437.69	8.646
437.89	7.942
438.09	8.535
438.29	7.638
438.49	8.584
438.70	7.747
438.90	7.719
439.10	7.412
439.30	7.668
439.50	7.322
439.71	8.169
439.91	7.893
440.11	8.489
440.31	7.894
440.51	7.900
440.72	7.830
440.92	7.817
441.12	8.726
441.32	8.596
441.52	8.426
441.72	8.087
441.93	8.473
442.13	8.688
442.33	7.822
442.53	8.642
442.73	7.505
442.94	7.956
443.14	8.146
443.34	8.594
443.54	7.544
443.74	8.597
443.94	7.839
444.15	7.941
444.35	7.578
444.55	8.295
444.75	7.402
444.95	8.060
445.15	7.452
445.36	7.559
445.56	7.191
445.76	7.735
445.96	7.421
446.16	7.817
446.36	7.216
446.57	8.391
446.77	7.252
446.97	8.006
447.17	8.065
447.37	8.181
447.57	8.063
447.77	8.108
447.98	8.072
448.18	8.226
448.38	7.406
448.58	8.237
448.78	8.257
448.98	8.457
449.18	7.531
449.39	8.056
449.59	7.546
449.79	7.932
449.99	7.339
450.19	7.928
450.39	7.252
450.59	7.732
450.79	7.212
451.00	7.988
451.20	8.426
451.40	7.797
451.60	6.930
451.80	7.659
452.00	7.126
452.20	7.630
452.40	7.495
452.61	7.374
452.81	7.227
453.01	7.436
453.21	7.045
453.41	7.670
453.61	7.333
453.81	7.174
454.01	7.335
454.21	7.871
454.42	7.647
454.62	7.486
454.82	7.348
455.02	7.233
455.22	6.781
455.42	7.317
455.62	6.509
455.82	7.240
456.02	7.004
456.23	7.672
456.43	6.728
456.63	7.004
456.83	6.528
457.03	7.743
457.23	6.701
457.43	7.539
457.63	6.961
457.83	7.325
458.03	6.607
458.23	6.861
458.43	6.591
458.64	7.407
458.84	7.448
459.04	7.285
459.24	7.351
459.44	7.258
459.64	7.272
459.84	7.204
460.04	7.155
460.24	7.543
460.44	7.368
460.64	7.825
460.84	7.372
461.04	7.780
461.24	7.833
461.45	8.065
461.65	7.863
461.85	8.126
462.05	7.515
462.25	7.751
462.45	8.148
462.65	7.729
462.85	6.503
463.05	7.693
463.25	6.230
463.45	7.468
463.65	7.103
463.85	7.645
464.05	6.727
464.25	7.150
464.45	7.268
464.65	7.152
464.85	6.586
465.05	7.185
465.26	7.415
465.46	7.050
465.66	7.226
465.86	6.987
466.06	6.829
466.26	7.147
466.46	5.794
466.66	7.467
466.86	6.617
467.06	7.008
467.26	7.447
467.46	7.010
467.66	6.876
467.86	6.925
468.06	7.000
468.26	6.980
468.46	7.200
468.66	7.225
468.86	6.386
469.06	7.486
469.26	5.994
469.46	7.261
469.66	6.286
469.86	6.934
470.06	6.581
470.26	7.444
470.46	6.463
470.66	7.382
470.86	6.205
471.06	6.652
471.26	5.985
471.46	6.833
471.66	6.537
471.86	7.066
472.06	6.186
472.26	7.294
472.46	7.077
472.66	7.360
472.86	6.507
473.06	6.890
473.26	6.914
473.46	7.131
