SpectraSuite Data File
++++++++++++++++++++++++++++++++++++
Date: Mon Sep 23 04:18:24 EST 2019
User: sgrac
Dark Spectrum Present: Yes
Reference Spectrum Present: Yes
Number of Sampled Component Spectra: 1
Spectrometers: USB4E01596
Integration Time (usec): 100000 (USB4E01596)
Spectra Averaged: 3 (USB4E01596)
Boxcar Smoothing: 0 (USB4E01596)
Correct for Electrical Dark: No (USB4E01596)
Strobe/Lamp Enabled: Yes (USB4E01596)
Correct for Detector Non-linearity: No (USB4E01596)
Correct for Stray Light: No (USB4E01596)
Number of Pixels in Processed Spectrum: 3648
>>>>>Begin Processed Spectral Data<<<<<
178.44	1376.923
178.66	1376.923
178.87	1376.923
179.09	8800.000
179.30	-5700.000
179.52	-990.323
179.74	-494.340
179.95	731.818
180.17	-747.222
180.38	526.316
180.60	-2818.182
180.82	811.111
181.03	4133.333
181.25	-2708.333
181.46	-1060.000
181.68	1208.333
181.89	-643.182
182.11	-2143.750
182.33	-1906.250
182.54	720.833
182.76	4166.667
182.97	-576.596
183.19	1235.000
183.40	329.752
183.62	407.692
183.84	319.091
184.05	5242.857
184.27	513.636
184.48	571.212
184.70	1741.176
184.91	1738.095
185.13	2910.000
185.34	-16550.000
185.56	1192.308
185.78	479.167
185.99	1102.778
186.21	398.864
186.42	-7725.000
186.64	2170.000
186.85	-5120.000
187.07	596.000
187.28	434.211
187.50	530.909
187.72	423.077
187.93	769.091
188.15	446.875
188.36	468.421
188.58	640.816
188.79	292.308
189.01	501.408
189.22	981.081
189.44	-1048.485
189.65	354.237
189.87	-5400.000
190.09	514.286
190.30	738.095
190.52	513.333
190.73	858.696
190.95	-5916.667
191.16	429.762
191.38	477.027
191.59	445.588
191.81	656.452
192.02	2193.333
192.24	1018.750
192.45	973.529
192.67	-1643.750
192.88	458.491
193.10	542.623
193.31	717.500
193.53	258.065
193.74	481.333
193.96	2235.714
194.18	1057.692
194.39	2140.000
194.61	504.110
194.82	1531.818
195.04	430.488
195.25	-470.175
195.47	-459.259
195.68	4500.000
195.90	560.000
196.11	476.119
196.33	34300.000
196.54	865.854
196.76	1928.571
196.97	428.571
197.19	810.811
197.40	2328.571
197.62	278.899
197.83	1222.581
198.05	672.727
198.26	1086.207
198.48	515.493
198.69	543.333
198.91	1322.222
199.12	779.070
199.34	767.391
199.55	477.143
199.77	2015.789
199.98	900.000
200.20	456.579
200.41	562.903
200.63	342.478
200.84	2100.000
201.06	3311.111
201.27	746.341
201.49	594.366
201.70	-850.000
201.91	488.889
202.13	584.746
202.34	529.310
202.56	-928.000
202.77	780.000
202.99	4833.333
203.20	-4050.000
203.42	2125.000
203.63	328.947
203.85	5433.333
204.06	608.000
204.28	260.606
204.49	520.370
204.71	488.136
204.92	1146.154
205.14	0.000
205.35	936.667
205.56	-1620.000
205.78	6820.000
205.99	-2214.286
206.21	11900.000
206.42	675.000
206.64	1064.516
206.85	1007.407
207.07	-2777.778
207.28	413.793
207.50	797.826
207.71	732.258
207.93	392.771
208.14	-1129.630
208.35	558.182
208.57	1088.000
208.78	-3511.111
209.00	343.617
209.21	-15700.000
209.43	-9066.667
209.64	-1866.667
209.86	246.392
210.07	353.488
210.28	547.887
210.50	1120.690
210.71	629.412
210.93	223.529
211.14	486.517
211.36	1868.750
211.57	389.394
211.78	458.571
212.00	363.529
212.21	455.714
212.43	956.410
212.64	396.809
212.86	431.081
213.07	384.404
213.29	-905.556
213.50	347.826
213.71	385.057
213.93	478.049
214.14	2154.545
214.36	455.882
214.57	448.101
214.78	726.667
215.00	346.875
215.21	1026.667
215.43	829.730
215.64	398.413
215.86	348.750
216.07	865.714
216.28	792.105
216.50	310.000
216.71	32700.000
216.93	550.000
217.14	1550.000
217.35	276.515
217.57	315.315
217.78	382.716
218.00	320.202
218.21	760.870
218.42	772.340
218.64	489.286
218.85	584.000
219.07	1370.000
219.28	361.682
219.49	623.529
219.71	506.154
219.92	283.582
220.14	355.670
220.35	436.000
220.56	377.011
220.78	306.731
220.99	266.129
221.21	282.796
221.42	393.827
221.63	197.688
221.85	455.385
222.06	395.714
222.28	513.846
222.49	294.595
222.70	306.299
222.92	640.816
223.13	473.770
223.34	234.043
223.56	344.048
223.77	313.750
223.99	420.000
224.20	398.214
224.41	402.740
224.63	376.136
224.84	258.108
225.05	125.641
225.27	235.652
225.48	307.843
225.69	251.880
225.91	381.081
226.12	232.558
226.34	253.020
226.55	170.504
226.76	218.750
226.98	131.765
227.19	120.312
227.40	251.562
227.62	178.836
227.83	129.614
228.04	111.453
228.26	100.257
228.47	83.003
228.69	77.157
228.90	39.446
229.11	72.061
229.33	48.276
229.54	45.560
229.75	47.092
229.97	42.396
230.18	46.517
230.39	44.580
230.61	52.386
230.82	50.898
231.03	36.968
231.25	39.845
231.46	52.036
231.67	53.080
231.89	57.799
232.10	47.559
232.31	54.432
232.53	60.611
232.74	71.776
232.95	67.695
233.17	64.600
233.38	57.773
233.59	64.935
233.81	63.225
234.02	63.727
234.23	62.589
234.45	72.743
234.66	71.239
234.87	59.631
235.09	69.614
235.30	51.313
235.51	66.904
235.73	49.722
235.94	53.701
236.15	61.347
236.36	57.944
236.58	45.398
236.79	50.885
237.00	60.997
237.22	67.347
237.43	52.585
237.64	56.535
237.86	37.030
238.07	58.763
238.28	50.484
238.50	48.142
238.71	57.194
238.92	51.563
239.13	44.068
239.35	54.121
239.56	60.247
239.77	72.057
239.99	48.660
240.20	50.831
240.41	50.646
240.63	45.013
240.84	43.781
241.05	36.155
241.26	37.758
241.48	37.602
241.69	34.763
241.90	26.173
242.12	24.487
242.33	29.272
242.54	25.873
242.75	24.956
242.97	25.959
243.18	22.931
243.39	19.881
243.61	23.744
243.82	27.404
244.03	23.060
244.24	23.636
244.46	24.943
244.67	26.456
244.88	25.414
245.09	25.797
245.31	28.100
245.52	24.412
245.73	24.123
245.95	43.795
246.16	23.792
246.37	21.851
246.58	25.083
246.80	22.339
247.01	25.695
247.22	22.437
247.43	21.586
247.65	21.109
247.86	19.900
248.07	16.732
248.28	20.504
248.50	21.610
248.71	17.717
248.92	21.556
249.13	20.067
249.35	22.203
249.56	23.118
249.77	21.840
249.98	18.852
250.20	26.446
250.41	23.819
250.62	26.332
250.83	21.310
251.05	23.629
251.26	20.227
251.47	24.425
251.68	25.466
251.90	22.863
252.11	24.574
252.32	26.051
252.53	23.901
252.75	22.536
252.96	24.797
253.17	20.691
253.38	21.005
253.59	22.382
253.81	20.878
254.02	19.161
254.23	21.111
254.44	17.837
254.66	19.727
254.87	25.304
255.08	23.804
255.29	25.879
255.50	14.183
255.72	24.500
255.93	27.504
256.14	33.667
256.35	27.581
256.57	27.831
256.78	27.085
256.99	22.973
257.20	36.558
257.41	25.231
257.63	26.944
257.84	21.586
258.05	28.415
258.26	24.667
258.47	25.780
258.69	24.440
258.90	13.447
259.11	21.364
259.32	17.797
259.53	18.878
259.75	16.911
259.96	15.832
260.17	15.474
260.38	14.001
260.59	16.985
260.81	16.677
261.02	15.020
261.23	16.004
261.44	17.812
261.65	17.809
261.87	15.708
262.08	18.968
262.29	18.439
262.50	16.758
262.71	15.168
262.92	19.317
263.14	14.948
263.35	16.091
263.56	17.734
263.77	17.589
263.98	19.156
264.20	22.032
264.41	17.795
264.62	17.426
264.83	14.753
265.04	25.969
265.25	18.297
265.47	18.226
265.68	24.612
265.89	19.936
266.10	12.432
266.31	24.783
266.52	20.459
266.74	17.900
266.95	17.593
267.16	19.482
267.37	17.108
267.58	14.335
267.79	18.452
268.01	17.691
268.22	17.320
268.43	17.802
268.64	17.019
268.85	17.160
269.06	14.951
269.27	20.341
269.49	15.163
269.70	14.829
269.91	16.345
270.12	14.147
270.33	18.874
270.54	15.742
270.75	13.109
270.97	17.460
271.18	15.816
271.39	16.282
271.60	16.425
271.81	17.627
272.02	14.927
272.23	15.717
272.45	13.989
272.66	10.588
272.87	15.259
273.08	12.156
273.29	18.040
273.50	13.534
273.71	14.828
273.92	13.470
274.14	15.039
274.35	16.079
274.56	14.573
274.77	17.330
274.98	14.530
275.19	15.486
275.40	14.626
275.61	13.594
275.83	16.445
276.04	17.650
276.25	17.627
276.46	17.403
276.67	17.473
276.88	19.089
277.09	13.735
277.30	18.227
277.51	17.949
277.73	13.841
277.94	13.448
278.15	20.644
278.36	19.096
278.57	13.537
278.78	15.206
278.99	16.215
279.20	16.699
279.41	19.293
279.62	13.026
279.84	14.628
280.05	15.063
280.26	14.952
280.47	18.809
280.68	16.012
280.89	13.654
281.10	15.982
281.31	13.918
281.52	18.104
281.73	12.112
281.94	14.135
282.16	14.118
282.37	11.883
282.58	13.261
282.79	19.603
283.00	18.249
283.21	13.694
283.42	14.023
283.63	17.575
283.84	12.470
284.05	14.186
284.26	14.085
284.47	14.573
284.68	13.336
284.89	13.581
285.11	14.784
285.32	12.252
285.53	14.324
285.74	18.732
285.95	14.307
286.16	15.014
286.37	13.380
286.58	14.704
286.79	14.226
287.00	14.108
287.21	12.685
287.42	14.045
287.63	15.591
287.84	14.411
288.05	15.310
288.26	12.208
288.48	16.216
288.69	11.349
288.90	15.646
289.11	16.512
289.32	15.444
289.53	14.883
289.74	11.194
289.95	13.993
290.16	14.326
290.37	12.263
290.58	11.749
290.79	11.037
291.00	10.951
291.21	11.220
291.42	12.283
291.63	14.376
291.84	16.038
292.05	11.422
292.26	12.144
292.47	11.729
292.68	10.696
292.89	14.177
293.10	14.567
293.31	14.498
293.52	10.341
293.73	13.153
293.94	13.137
294.15	11.435
294.36	14.004
294.57	14.859
294.79	11.925
295.00	9.992
295.21	13.879
295.42	12.971
295.63	13.597
295.84	11.118
296.05	11.695
296.26	12.279
296.47	11.533
296.68	12.853
296.89	14.742
297.10	13.928
297.31	13.524
297.52	11.353
297.73	14.590
297.94	14.000
298.15	12.548
298.36	12.876
298.57	11.715
298.78	15.430
298.99	11.446
299.20	14.777
299.41	14.418
299.62	13.456
299.83	11.648
300.04	14.970
300.25	14.731
300.46	15.918
300.67	15.133
300.88	13.628
301.09	10.991
301.30	14.559
301.50	11.868
301.71	16.714
301.92	16.257
302.13	11.986
302.34	12.765
302.55	9.977
302.76	12.300
302.97	12.236
303.18	13.250
303.39	11.970
303.60	12.008
303.81	13.357
304.02	9.823
304.23	13.896
304.44	9.415
304.65	11.478
304.86	13.858
305.07	10.821
305.28	10.850
305.49	13.201
305.70	13.465
305.91	11.164
306.12	12.401
306.33	11.777
306.54	12.162
306.75	12.292
306.96	17.977
307.17	13.093
307.38	10.394
307.58	11.452
307.79	12.489
308.00	11.506
308.21	10.117
308.42	11.986
308.63	11.063
308.84	10.177
309.05	9.784
309.26	9.915
309.47	12.372
309.68	11.560
309.89	12.307
310.10	11.138
310.31	11.273
310.52	10.823
310.73	15.671
310.94	8.462
311.14	10.263
311.35	9.475
311.56	11.856
311.77	10.247
311.98	9.313
312.19	12.859
312.40	8.263
312.61	10.202
312.82	10.702
313.03	10.365
313.24	12.346
313.45	12.776
313.66	10.099
313.86	13.172
314.07	11.047
314.28	11.900
314.49	9.319
314.70	12.893
314.91	14.289
315.12	10.240
315.33	12.601
315.54	10.725
315.75	8.596
315.96	9.804
316.16	10.735
316.37	12.119
316.58	11.306
316.79	9.980
317.00	11.853
317.21	10.248
317.42	12.045
317.63	13.001
317.84	10.096
318.05	11.010
318.25	11.531
318.46	10.145
318.67	8.592
318.88	12.595
319.09	12.920
319.30	10.091
319.51	9.384
319.72	12.053
319.93	9.491
320.13	10.623
320.34	12.176
320.55	10.452
320.76	11.581
320.97	11.977
321.18	12.590
321.39	9.328
321.60	11.166
321.80	13.646
322.01	10.780
322.22	10.071
322.43	10.379
322.64	9.723
322.85	11.402
323.06	11.824
323.27	11.104
323.47	12.594
323.68	11.164
323.89	10.891
324.10	13.207
324.31	9.381
324.52	10.441
324.73	13.101
324.93	11.313
325.14	11.367
325.35	11.736
325.56	9.567
325.77	11.989
325.98	11.706
326.19	11.111
326.39	7.306
326.60	9.231
326.81	9.664
327.02	7.863
327.23	9.839
327.44	12.352
327.64	7.292
327.85	7.779
328.06	11.997
328.27	13.970
328.48	10.040
328.69	7.459
328.90	9.912
329.10	10.127
329.31	10.273
329.52	10.783
329.73	12.288
329.94	10.171
330.15	10.830
330.35	14.054
330.56	10.647
330.77	10.622
330.98	8.170
331.19	10.288
331.39	10.536
331.60	11.879
331.81	8.506
332.02	10.659
332.23	10.079
332.44	10.092
332.64	10.430
332.85	9.559
333.06	11.988
333.27	8.377
333.48	10.322
333.68	8.449
333.89	9.614
334.10	8.951
334.31	10.190
334.52	9.417
334.72	9.728
334.93	8.963
335.14	8.001
335.35	8.860
335.56	11.307
335.76	7.708
335.97	10.558
336.18	8.960
336.39	12.743
336.60	9.208
336.80	8.012
337.01	8.638
337.22	9.721
337.43	9.741
337.64	12.307
337.84	10.879
338.05	8.829
338.26	12.458
338.47	11.895
338.68	8.541
338.88	10.364
339.09	8.909
339.30	10.216
339.51	9.176
339.71	10.946
339.92	7.983
340.13	10.946
340.34	9.418
340.55	9.219
340.75	10.828
340.96	9.233
341.17	10.909
341.38	9.031
341.58	9.165
341.79	9.264
342.00	7.755
342.21	9.583
342.41	6.572
342.62	10.114
342.83	10.462
343.04	6.455
343.24	9.214
343.45	10.298
343.66	7.955
343.87	8.655
344.07	7.870
344.28	10.119
344.49	8.684
344.70	11.760
344.90	8.967
345.11	7.398
345.32	9.104
345.53	9.945
345.73	9.659
345.94	11.378
346.15	10.822
346.36	9.646
346.56	10.286
346.77	10.804
346.98	9.473
347.19	11.270
347.39	9.878
347.60	10.162
347.81	10.302
348.02	11.106
348.22	8.456
348.43	9.225
348.64	9.947
348.84	10.466
349.05	11.472
349.26	11.966
349.47	8.832
349.67	10.485
349.88	12.142
350.09	10.825
350.30	12.528
350.50	11.240
350.71	11.572
350.92	10.695
351.12	11.803
351.33	9.719
351.54	10.504
351.74	11.436
351.95	10.452
352.16	13.632
352.37	13.146
352.57	12.448
352.78	12.022
352.99	13.162
353.19	11.940
353.40	13.997
353.61	15.449
353.82	14.262
354.02	14.605
354.23	14.230
354.44	16.534
354.64	14.659
354.85	14.271
355.06	13.988
355.26	13.711
355.47	14.489
355.68	16.633
355.88	16.869
356.09	15.017
356.30	14.096
356.51	16.941
356.71	14.521
356.92	13.371
357.13	16.829
357.33	18.621
357.54	16.784
357.75	13.707
357.95	17.126
358.16	14.499
358.37	18.485
358.57	15.739
358.78	19.193
358.99	16.521
359.19	17.089
359.40	17.901
359.61	17.182
359.81	18.594
360.02	20.526
360.23	16.262
360.43	17.566
360.64	16.783
360.85	18.424
361.05	16.341
361.26	19.422
361.47	17.815
361.67	20.049
361.88	17.015
362.09	18.679
362.29	17.966
362.50	18.205
362.70	16.532
362.91	19.656
363.12	18.265
363.32	19.405
363.53	19.247
363.74	20.123
363.94	16.782
364.15	20.040
364.36	19.673
364.56	18.902
364.77	18.242
364.98	20.168
365.18	18.915
365.39	19.926
365.59	17.285
365.80	18.926
366.01	19.676
366.21	18.820
366.42	17.537
366.63	20.630
366.83	18.029
367.04	17.027
367.24	20.593
367.45	19.232
367.66	17.088
367.86	18.320
368.07	18.304
368.28	18.059
368.48	18.816
368.69	17.013
368.89	17.687
369.10	18.894
369.31	17.918
369.51	19.632
369.72	20.228
369.92	20.774
370.13	15.431
370.34	19.287
370.54	14.233
370.75	18.214
370.95	15.854
371.16	19.261
371.37	17.501
371.57	17.149
371.78	17.394
371.98	18.948
372.19	18.128
372.40	18.536
372.60	18.566
372.81	19.181
373.01	15.559
373.22	17.745
373.43	18.442
373.63	18.464
373.84	18.078
374.04	17.802
374.25	16.860
374.46	18.522
374.66	18.141
374.87	19.133
375.07	15.380
375.28	16.640
375.48	16.701
375.69	18.233
375.90	14.471
376.10	15.515
376.31	16.300
376.51	16.385
376.72	16.710
376.92	15.930
377.13	17.248
377.34	18.576
377.54	16.399
377.75	18.837
377.95	16.301
378.16	17.971
378.36	17.728
378.57	18.396
378.77	17.167
378.98	16.514
379.19	16.636
379.39	16.671
379.60	16.909
379.80	16.746
380.01	18.620
380.21	16.591
380.42	17.314
380.62	16.941
380.83	17.880
381.04	16.859
381.24	16.559
381.45	16.880
381.65	14.998
381.86	16.621
382.06	17.191
382.27	15.965
382.47	15.800
382.68	17.701
382.88	15.499
383.09	15.715
383.29	17.036
383.50	17.808
383.71	16.045
383.91	16.602
384.12	15.507
384.32	16.752
384.53	15.892
384.73	15.522
384.94	15.559
385.14	16.904
385.35	15.779
385.55	16.225
385.76	15.543
385.96	16.024
386.17	16.380
386.37	16.886
386.58	16.271
386.78	17.614
386.99	15.025
387.19	17.724
387.40	15.409
387.60	17.591
387.81	15.823
388.01	16.194
388.22	16.434
388.42	17.143
388.63	16.630
388.83	17.520
389.04	13.828
389.24	16.436
389.45	15.934
389.65	15.849
389.86	15.801
390.06	15.224
390.27	15.007
390.47	15.279
390.68	15.527
390.88	17.020
391.09	16.578
391.29	16.905
391.50	15.707
391.70	16.511
391.91	15.720
392.11	15.558
392.32	16.228
392.52	16.716
392.73	15.183
392.93	17.073
393.14	15.585
393.34	16.033
393.55	16.717
393.75	16.087
393.95	15.546
394.16	16.773
394.36	16.252
394.57	16.112
394.77	15.700
394.98	15.433
395.18	16.130
395.39	16.435
395.59	16.572
395.80	16.453
396.00	15.954
396.21	16.860
396.41	15.130
396.61	16.919
396.82	15.909
397.02	17.456
397.23	15.555
397.43	16.270
397.64	13.822
397.84	17.014
398.05	14.831
398.25	16.103
398.45	15.188
398.66	16.391
398.86	15.981
399.07	16.978
399.27	14.775
399.48	16.717
399.68	15.283
399.89	15.885
400.09	15.859
400.29	15.385
400.50	15.547
400.70	15.939
400.91	14.735
401.11	15.152
401.32	15.618
401.52	14.494
401.72	15.064
401.93	16.995
402.13	15.454
402.34	15.207
402.54	14.079
402.75	16.690
402.95	13.281
403.15	17.144
403.36	14.520
403.56	15.717
403.77	14.790
403.97	15.274
404.17	14.757
404.38	16.319
404.58	13.937
404.79	16.262
404.99	15.475
405.19	15.536
405.40	15.173
405.60	14.971
405.81	15.712
406.01	15.608
406.21	15.177
406.42	16.607
406.62	15.135
406.83	16.112
407.03	16.079
407.23	14.888
407.44	14.158
407.64	16.065
407.85	15.251
408.05	14.868
408.25	14.892
408.46	15.562
408.66	15.696
408.87	15.132
409.07	14.544
409.27	14.327
409.48	14.127
409.68	16.200
409.88	13.361
410.09	14.998
410.29	14.853
410.50	15.318
410.70	14.049
410.90	14.756
411.11	14.068
411.31	14.534
411.51	15.621
411.72	15.504
411.92	14.291
412.12	14.368
412.33	14.439
412.53	14.625
412.74	13.181
412.94	15.165
413.14	14.796
413.35	15.353
413.55	14.718
413.75	15.814
413.96	13.881
414.16	15.278
414.36	14.746
414.57	15.453
414.77	14.142
414.97	14.775
415.18	14.131
415.38	15.034
415.58	14.248
415.79	14.375
415.99	13.085
416.19	15.526
416.40	14.473
416.60	14.460
416.80	13.528
417.01	15.117
417.21	12.863
417.41	14.795
417.62	14.826
417.82	15.711
418.02	13.732
418.23	14.919
418.43	14.189
418.63	15.078
418.84	14.888
419.04	14.301
419.24	15.491
419.45	15.243
419.65	14.950
419.85	15.890
420.06	14.942
420.26	15.051
420.46	15.108
420.67	15.095
420.87	15.185
421.07	15.101
421.28	14.435
421.48	15.043
421.68	14.789
421.88	15.258
422.09	14.988
422.29	14.791
422.49	14.702
422.70	14.750
422.90	15.204
423.10	15.210
423.31	15.047
423.51	15.122
423.71	14.943
423.91	15.214
424.12	15.402
424.32	15.189
424.52	14.481
424.73	15.053
424.93	14.846
425.13	14.903
425.33	14.408
425.54	15.175
425.74	15.055
425.94	15.262
426.15	15.222
426.35	15.391
426.55	15.058
426.75	15.393
426.96	15.252
427.16	15.341
427.36	15.004
427.57	15.306
427.77	14.971
427.97	15.387
428.17	15.263
428.38	15.777
428.58	14.352
428.78	15.561
428.98	15.138
429.19	14.656
429.39	13.839
429.59	14.800
429.79	13.593
430.00	13.765
430.20	14.220
430.40	15.099
430.60	14.155
430.81	14.395
431.01	14.023
431.21	14.300
431.41	13.422
431.62	14.691
431.82	14.320
432.02	14.974
432.22	14.009
432.43	14.709
432.63	14.018
432.83	14.423
433.03	14.492
433.24	14.183
433.44	13.978
433.64	14.513
433.84	13.941
434.05	14.643
434.25	14.437
434.45	15.111
434.65	14.917
434.85	14.918
435.06	14.826
435.26	14.345
435.46	14.584
435.66	15.244
435.87	14.499
436.07	14.600
436.27	14.720
436.47	14.278
436.67	13.897
436.88	14.977
437.08	14.243
437.28	14.096
437.48	14.213
437.69	14.708
437.89	14.755
438.09	14.404
438.29	14.369
438.49	14.644
438.70	14.419
438.90	14.431
439.10	13.744
439.30	14.763
439.50	13.333
439.71	14.788
439.91	14.148
440.11	15.283
440.31	14.352
440.51	14.114
440.72	14.225
440.92	13.926
441.12	14.641
441.32	14.652
441.52	14.460
441.72	14.782
441.93	14.561
442.13	14.712
442.33	14.373
442.53	14.730
442.73	14.658
442.94	14.659
443.14	14.431
443.34	14.983
443.54	14.281
443.74	14.700
443.94	14.491
444.15	14.053
444.35	14.504
444.55	14.512
444.75	14.017
444.95	14.773
445.15	13.985
445.36	14.052
445.56	13.815
445.76	13.947
445.96	13.564
446.16	14.062
446.36	13.825
446.57	14.447
446.77	13.900
446.97	14.200
447.17	14.233
447.37	14.392
447.57	14.444
447.77	14.533
447.98	14.604
448.18	14.364
448.38	14.128
448.58	14.588
448.78	14.586
448.98	14.357
449.18	14.690
449.39	14.626
449.59	14.041
449.79	14.505
449.99	14.308
450.19	14.719
450.39	14.583
450.59	14.358
450.79	14.460
451.00	14.278
451.20	15.248
451.40	14.177
451.60	14.064
451.80	14.596
452.00	13.771
452.20	14.273
452.40	14.301
452.61	14.141
452.81	14.101
453.01	14.268
453.21	14.021
453.41	14.251
453.61	14.235
453.81	14.037
454.01	14.143
454.21	14.595
454.42	14.537
454.62	14.519
454.82	14.392
455.02	14.278
455.22	13.724
455.42	14.390
455.62	13.514
455.82	14.149
456.02	13.851
456.23	13.918
456.43	13.527
456.63	13.821
456.83	13.628
457.03	14.325
457.23	14.167
457.43	14.412
457.63	13.350
457.83	13.975
458.03	13.862
458.23	13.710
458.43	12.950
458.64	13.900
458.84	14.107
459.04	13.810
459.24	13.567
459.44	13.586
459.64	13.688
459.84	13.579
460.04	13.795
460.24	13.842
460.44	13.781
460.64	14.183
460.84	14.410
461.04	14.311
461.24	14.498
461.45	14.360
461.65	14.668
461.85	14.389
462.05	14.279
462.25	14.083
462.45	14.505
462.65	14.579
462.85	14.108
463.05	14.097
463.25	13.853
