SpectraSuite Data File
++++++++++++++++++++++++++++++++++++
Date: Tue Sep 24 03:43:46 EST 2019
User: sgrac
Dark Spectrum Present: Yes
Reference Spectrum Present: Yes
Number of Sampled Component Spectra: 1
Spectrometers: USB4E01596
Integration Time (usec): 100000 (USB4E01596)
Spectra Averaged: 3 (USB4E01596)
Boxcar Smoothing: 0 (USB4E01596)
Correct for Electrical Dark: No (USB4E01596)
Strobe/Lamp Enabled: Yes (USB4E01596)
Correct for Detector Non-linearity: No (USB4E01596)
Correct for Stray Light: No (USB4E01596)
Number of Pixels in Processed Spectrum: 3648
>>>>>Begin Processed Spectral Data<<<<<
178.44	1536.364
178.66	1536.364
178.87	1536.364
179.09	671.698
179.30	788.889
179.52	-1430.000
179.74	784.906
179.95	770.149
180.17	-20550.000
180.38	-12433.333
180.60	549.438
180.82	-3600.000
181.03	889.189
181.25	-1721.739
181.46	622.222
181.68	3900.000
181.89	-1887.500
182.11	639.394
182.33	1320.000
182.54	770.175
182.76	-862.500
182.97	264.596
183.19	826.667
183.40	4544.444
183.62	539.024
183.84	606.667
184.05	1034.783
184.27	487.654
184.48	-2055.556
184.70	462.366
184.91	619.737
185.13	686.842
185.34	520.430
185.56	1143.750
185.78	1654.167
185.99	2412.500
186.21	573.750
186.42	835.714
186.64	492.473
186.85	914.583
187.07	-4130.000
187.28	-1735.294
187.50	-37900.000
187.72	40500.000
187.93	-1895.833
188.15	1111.628
188.36	613.514
188.58	604.054
188.79	-6828.571
189.01	-3600.000
189.22	1584.000
189.44	511.628
189.65	550.000
189.87	-6428.571
190.09	1200.000
190.30	1100.000
190.52	2190.476
190.73	7583.333
190.95	1173.684
191.16	468.354
191.38	3900.000
191.59	3407.143
191.81	1458.824
192.02	978.723
192.24	844.898
192.45	2894.118
192.67	553.247
192.88	475.510
193.10	684.848
193.31	462.626
193.53	1152.632
193.74	-35400.000
193.96	726.761
194.18	392.453
194.39	429.348
194.61	509.259
194.82	360.169
195.04	391.589
195.25	0.000
195.47	-45600.000
195.68	427.000
195.90	521.176
196.11	478.313
196.33	948.837
196.54	424.771
196.76	1178.788
196.97	-3391.667
197.19	536.047
197.40	822.807
197.62	773.585
197.83	472.115
198.05	731.507
198.26	0.000
198.48	-800.000
198.69	1413.333
198.91	5857.143
199.12	-9300.000
199.34	496.667
199.55	-37300.000
199.77	2522.222
199.98	676.056
200.20	355.372
200.41	628.947
200.63	1267.647
200.84	-3392.308
201.06	489.873
201.27	1800.000
201.49	823.404
201.70	565.517
201.91	688.732
202.13	623.881
202.34	-1680.000
202.56	312.676
202.77	5275.000
202.99	5800.000
203.20	695.652
203.42	1113.514
203.63	4850.000
203.85	473.950
204.06	719.231
204.28	340.678
204.49	1200.000
204.71	-1087.500
204.92	380.435
205.14	1390.323
205.35	1023.810
205.56	471.429
205.78	-892.000
205.99	1220.513
206.21	829.825
206.42	572.727
206.64	1891.304
206.85	491.566
207.07	-504.839
207.28	1488.000
207.50	546.739
207.71	808.333
207.93	11333.333
208.14	1150.000
208.35	-2966.667
208.57	-965.517
208.78	332.867
209.00	1082.500
209.21	491.089
209.43	-6450.000
209.64	263.636
209.86	703.509
210.07	866.667
210.28	1210.345
210.50	7366.667
210.71	1209.677
210.93	-2806.667
211.14	792.727
211.36	502.083
211.57	1722.222
211.78	4644.444
212.00	-2233.333
212.21	1156.098
212.43	830.357
212.64	508.537
212.86	1956.522
213.07	601.471
213.29	2750.000
213.50	334.921
213.71	572.289
213.93	371.538
214.14	417.094
214.36	421.176
214.57	-3940.000
214.78	1215.385
215.00	399.174
215.21	1217.500
215.43	1608.000
215.64	475.000
215.86	422.642
216.07	9550.000
216.28	708.955
216.50	489.216
216.71	1344.828
216.93	-1016.279
217.14	470.707
217.35	789.286
217.57	411.966
217.78	656.452
218.00	446.465
218.21	553.521
218.42	1737.037
218.64	2946.667
218.85	905.357
219.07	405.042
219.28	592.308
219.49	460.550
219.71	645.714
219.92	1236.000
220.14	826.087
220.35	3736.364
220.56	982.927
220.78	1315.152
220.99	578.462
221.21	617.568
221.42	555.405
221.63	7750.000
221.85	1746.429
222.06	1004.167
222.28	596.203
222.49	484.946
222.70	409.000
222.92	836.842
223.13	1927.778
223.34	1362.500
223.56	322.047
223.77	306.944
223.99	504.444
224.20	294.521
224.41	570.667
224.63	506.122
224.84	305.714
225.05	364.000
225.27	684.314
225.48	394.949
225.69	458.333
225.91	513.253
226.12	225.510
226.34	265.922
226.55	190.213
226.76	254.737
226.98	267.500
227.19	191.667
227.40	212.121
227.62	186.408
227.83	134.530
228.04	157.229
228.26	130.931
228.47	89.892
228.69	91.429
228.90	71.927
229.11	62.891
229.33	50.907
229.54	53.580
229.75	49.424
229.97	47.914
230.18	49.539
230.39	41.046
230.61	40.895
230.82	54.162
231.03	41.372
231.25	49.765
231.46	52.854
231.67	52.417
231.89	62.745
232.10	56.901
232.31	71.734
232.53	74.841
232.74	85.984
232.95	67.350
233.17	71.154
233.38	62.814
233.59	81.329
233.81	81.849
234.02	83.725
234.23	80.488
234.45	83.413
234.66	75.455
234.87	71.628
235.09	64.823
235.30	68.605
235.51	74.786
235.73	66.226
235.94	67.868
236.15	72.857
236.36	74.659
236.58	66.368
236.79	57.729
237.00	60.469
237.22	54.444
237.43	64.841
237.64	60.000
237.86	53.463
238.07	74.961
238.28	64.000
238.50	67.460
238.71	67.218
238.92	51.893
239.13	66.714
239.35	61.912
239.56	55.238
239.77	65.757
239.99	48.455
240.20	65.659
240.41	54.303
240.63	42.996
240.84	51.472
241.05	46.654
241.26	38.400
241.48	36.316
241.69	34.796
241.90	29.612
242.12	31.061
242.33	25.961
242.54	21.538
242.75	23.366
242.97	24.479
243.18	21.817
243.39	18.312
243.61	21.813
243.82	21.308
244.03	19.210
244.24	22.441
244.46	21.901
244.67	25.903
244.88	21.770
245.09	20.739
245.31	19.256
245.52	23.529
245.73	30.340
245.95	36.500
246.16	25.481
246.37	18.987
246.58	22.031
246.80	21.961
247.01	20.372
247.22	17.069
247.43	14.634
247.65	14.422
247.86	14.793
248.07	10.991
248.28	12.051
248.50	12.676
248.71	13.401
248.92	10.963
249.13	13.282
249.35	12.393
249.56	15.482
249.77	15.690
249.98	13.660
250.20	18.803
250.41	19.871
250.62	22.594
250.83	19.982
251.05	25.024
251.26	25.521
251.47	23.844
251.68	28.106
251.90	20.765
252.11	25.125
252.32	26.137
252.53	22.519
252.75	17.787
252.96	25.033
253.17	20.643
253.38	20.446
253.59	21.046
253.81	20.513
254.02	19.108
254.23	20.913
254.44	21.364
254.66	25.000
254.87	24.403
255.08	27.784
255.29	34.146
255.50	31.485
255.72	26.947
255.93	26.378
256.14	31.215
256.35	28.636
256.57	29.609
256.78	28.671
256.99	27.907
257.20	30.228
257.41	30.013
257.63	31.021
257.84	27.436
258.05	29.091
258.26	19.104
258.47	26.847
258.69	17.410
258.90	17.738
259.11	20.103
259.32	18.306
259.53	15.555
259.75	14.286
259.96	9.910
260.17	12.732
260.38	9.758
260.59	9.856
260.81	9.309
261.02	10.767
261.23	9.632
261.44	10.866
261.65	10.601
261.87	9.291
262.08	10.191
262.29	10.935
262.50	12.116
262.71	12.253
262.92	13.959
263.14	12.272
263.35	14.529
263.56	19.892
263.77	20.492
263.98	16.981
264.20	19.690
264.41	17.743
264.62	18.878
264.83	18.098
265.04	22.647
265.25	17.671
265.47	22.986
265.68	19.541
265.89	23.118
266.10	16.770
266.31	21.714
266.52	17.947
266.74	18.161
266.95	15.382
267.16	17.836
267.37	16.908
267.58	17.586
267.79	16.214
268.01	12.795
268.22	14.795
268.43	14.343
268.64	15.463
268.85	14.184
269.06	11.159
269.27	16.160
269.49	15.915
269.70	13.716
269.91	15.094
270.12	14.272
270.33	17.428
270.54	14.876
270.75	14.675
270.97	13.975
271.18	14.835
271.39	14.962
271.60	14.084
271.81	11.017
272.02	13.943
272.23	13.210
272.45	11.627
272.66	11.839
272.87	12.166
273.08	9.898
273.29	13.826
273.50	12.686
273.71	11.044
273.92	10.452
274.14	10.671
274.35	11.530
274.56	11.906
274.77	11.275
274.98	11.978
275.19	16.203
275.40	11.455
275.61	11.838
275.83	15.735
276.04	13.871
276.25	18.599
276.46	14.723
276.67	16.258
276.88	16.233
277.09	13.229
277.30	15.538
277.51	15.310
277.73	14.229
277.94	14.215
278.15	13.965
278.36	15.526
278.57	14.571
278.78	14.662
278.99	14.631
279.20	16.662
279.41	18.366
279.62	12.565
279.84	11.068
280.05	15.037
280.26	13.007
280.47	14.065
280.68	13.105
280.89	11.242
281.10	13.984
281.31	15.140
281.52	13.370
281.73	13.215
281.94	11.079
282.16	13.735
282.37	12.594
282.58	12.743
282.79	13.105
283.00	13.315
283.21	9.748
283.42	11.091
283.63	11.591
283.84	11.946
284.05	11.239
284.26	12.087
284.47	11.215
284.68	10.477
284.89	10.947
285.11	12.184
285.32	11.010
285.53	12.225
285.74	12.456
285.95	11.098
286.16	9.477
286.37	7.973
286.58	10.085
286.79	8.435
287.00	10.344
287.21	8.925
287.42	10.811
287.63	9.482
287.84	8.768
288.05	9.754
288.26	9.757
288.48	10.915
288.69	8.291
288.90	10.859
289.11	11.026
289.32	10.821
289.53	10.697
289.74	9.431
289.95	12.352
290.16	11.042
290.37	10.102
290.58	9.273
290.79	9.737
291.00	9.720
291.21	9.812
291.42	10.653
291.63	10.335
291.84	9.780
292.05	10.148
292.26	9.068
292.47	10.857
292.68	9.925
292.89	10.268
293.10	10.551
293.31	12.097
293.52	9.339
293.73	10.280
293.94	12.478
294.15	10.746
294.36	11.544
294.57	12.997
294.79	10.463
295.00	8.946
295.21	12.394
295.42	11.245
295.63	12.997
295.84	9.909
296.05	9.537
296.26	8.426
296.47	10.386
296.68	9.967
296.89	10.623
297.10	9.635
297.31	10.989
297.52	8.377
297.73	8.722
297.94	8.884
298.15	9.143
298.36	8.236
298.57	8.453
298.78	10.659
298.99	8.611
299.20	7.861
299.41	9.654
299.62	9.235
299.83	8.738
300.04	9.472
300.25	10.708
300.46	11.073
300.67	12.092
300.88	10.687
301.09	9.841
301.30	12.794
301.50	7.571
301.71	12.295
301.92	12.322
302.13	10.446
302.34	9.019
302.55	11.019
302.76	11.487
302.97	10.817
303.18	9.763
303.39	10.157
303.60	10.347
303.81	13.668
304.02	8.810
304.23	10.722
304.44	10.474
304.65	10.131
304.86	10.226
305.07	11.356
305.28	9.220
305.49	9.782
305.70	11.096
305.91	10.731
306.12	10.018
306.33	10.429
306.54	9.312
306.75	11.687
306.96	13.386
307.17	7.953
307.38	10.465
307.58	9.985
307.79	11.707
308.00	11.450
308.21	12.490
308.42	11.987
308.63	9.725
308.84	9.602
309.05	10.685
309.26	8.065
309.47	9.086
309.68	10.934
309.89	11.305
310.10	8.752
310.31	9.276
310.52	8.701
310.73	11.311
310.94	7.460
311.14	9.171
311.35	8.959
311.56	9.581
311.77	8.507
311.98	7.303
312.19	7.060
312.40	8.186
312.61	8.535
312.82	9.547
313.03	9.320
313.24	7.691
313.45	10.189
313.66	10.206
313.86	11.185
314.07	9.428
314.28	10.967
314.49	10.203
314.70	10.636
314.91	11.003
315.12	10.136
315.33	10.958
315.54	8.059
315.75	9.714
315.96	9.554
316.16	8.041
316.37	11.413
316.58	10.270
316.79	10.315
317.00	12.485
317.21	11.591
317.42	12.458
317.63	12.394
317.84	10.969
318.05	11.009
318.25	10.510
318.46	10.579
318.67	9.445
318.88	11.513
319.09	10.455
319.30	9.930
319.51	10.896
319.72	9.980
319.93	10.533
320.13	10.700
320.34	11.157
320.55	9.179
320.76	11.508
320.97	10.524
321.18	12.316
321.39	11.579
321.60	10.800
321.80	11.236
322.01	10.323
322.22	9.583
322.43	9.091
322.64	9.535
322.85	10.545
323.06	12.119
323.27	9.741
323.47	11.624
323.68	11.470
323.89	10.442
324.10	10.197
324.31	9.974
324.52	9.771
324.73	10.733
324.93	8.274
325.14	9.597
325.35	9.853
325.56	10.711
325.77	10.864
325.98	10.433
326.19	10.110
326.39	7.147
326.60	9.653
326.81	8.791
327.02	8.142
327.23	9.149
327.44	10.232
327.64	6.952
327.85	8.427
328.06	10.910
328.27	12.227
328.48	10.716
328.69	9.003
328.90	9.884
329.10	9.027
329.31	11.001
329.52	9.789
329.73	10.311
329.94	10.489
330.15	10.043
330.35	11.710
330.56	10.375
330.77	9.281
330.98	10.970
331.19	10.072
331.39	9.894
331.60	10.204
331.81	9.654
332.02	11.649
332.23	11.267
332.44	9.181
332.64	11.520
332.85	9.293
333.06	10.372
333.27	8.146
333.48	9.347
333.68	8.947
333.89	10.820
334.10	7.617
334.31	9.859
334.52	8.933
334.72	8.394
334.93	9.832
335.14	8.280
335.35	9.892
335.56	10.929
335.76	9.464
335.97	10.710
336.18	7.869
336.39	10.341
336.60	10.376
336.80	8.993
337.01	9.522
337.22	7.708
337.43	10.769
337.64	11.087
337.84	10.132
338.05	9.864
338.26	12.447
338.47	10.186
338.68	6.854
338.88	10.783
339.09	9.397
339.30	8.813
339.51	8.910
339.71	9.313
339.92	8.389
340.13	10.060
340.34	9.085
340.55	9.845
340.75	8.581
340.96	8.128
341.17	10.910
341.38	9.406
341.58	10.713
341.79	10.269
342.00	8.378
342.21	9.051
342.41	8.515
342.62	8.798
342.83	9.416
343.04	8.554
343.24	9.694
343.45	10.109
343.66	7.829
343.87	8.965
344.07	7.594
344.28	9.305
344.49	10.756
344.70	11.119
344.90	8.401
345.11	8.655
345.32	8.175
345.53	8.709
345.73	9.051
345.94	10.761
346.15	9.360
346.36	8.869
346.56	8.752
346.77	9.590
346.98	10.266
347.19	8.980
347.39	8.374
347.60	8.180
347.81	9.819
348.02	11.229
348.22	8.021
348.43	9.085
348.64	8.661
348.84	8.710
349.05	9.798
349.26	10.495
349.47	7.518
349.67	10.341
349.88	11.327
350.09	9.422
350.30	11.921
350.50	9.898
350.71	9.968
350.92	9.394
351.12	9.319
351.33	8.777
351.54	9.771
351.74	9.217
351.95	10.061
352.16	10.231
352.37	10.547
352.57	9.176
352.78	8.851
352.99	10.088
353.19	9.636
353.40	10.300
353.61	10.875
353.82	10.102
354.02	10.619
354.23	10.855
354.44	11.356
354.64	9.504
354.85	11.065
355.06	9.196
355.26	7.948
355.47	9.922
355.68	11.556
355.88	10.558
356.09	9.152
356.30	7.763
356.51	9.751
356.71	9.968
356.92	7.989
357.13	10.504
357.33	11.764
357.54	8.858
357.75	7.869
357.95	9.183
358.16	8.358
358.37	10.881
358.57	8.993
358.78	10.632
358.99	8.517
359.19	9.019
359.40	11.258
359.61	8.375
359.81	10.854
360.02	11.319
360.23	8.448
360.43	9.215
360.64	8.418
360.85	9.204
361.05	8.213
361.26	11.237
361.47	9.435
361.67	9.603
361.88	7.581
362.09	9.618
362.29	8.126
362.50	8.069
362.70	7.059
362.91	9.963
363.12	7.501
363.32	7.288
363.53	8.978
363.74	9.614
363.94	7.812
364.15	9.869
364.36	9.702
364.56	8.440
364.77	9.516
364.98	11.983
365.18	9.631
365.39	11.036
365.59	8.405
365.80	9.005
366.01	10.151
366.21	8.871
366.42	7.849
366.63	10.529
366.83	8.175
367.04	7.129
367.24	9.459
367.45	8.022
367.66	7.267
367.86	8.986
368.07	8.416
368.28	8.886
368.48	8.162
368.69	7.443
368.89	8.655
369.10	9.668
369.31	9.548
369.51	9.148
369.72	10.121
369.92	11.011
370.13	7.166
370.34	9.268
370.54	5.719
370.75	9.036
370.95	7.849
371.16	8.775
371.37	8.047
371.57	8.525
371.78	7.445
371.98	8.001
372.19	8.590
372.40	8.867
372.60	9.058
372.81	8.580
373.01	6.971
373.22	7.537
373.43	9.140
373.63	7.799
373.84	8.743
374.04	8.452
374.25	7.998
374.46	9.280
374.66	8.928
374.87	9.627
375.07	7.429
375.28	7.304
375.48	8.243
375.69	8.575
375.90	7.246
376.10	6.778
376.31	7.399
376.51	6.844
376.72	6.974
376.92	6.330
377.13	7.710
377.34	8.048
377.54	7.575
377.75	9.096
377.95	7.295
378.16	8.601
378.36	8.665
378.57	7.782
378.77	8.222
378.98	8.033
379.19	6.963
379.39	6.286
379.60	7.840
379.80	6.941
380.01	8.375
380.21	6.923
380.42	8.422
380.62	6.919
380.83	8.140
381.04	6.810
381.24	7.675
381.45	7.836
381.65	6.438
381.86	7.275
382.06	9.106
382.27	6.424
382.47	6.611
382.68	8.257
382.88	7.185
383.09	7.373
383.29	6.186
383.50	8.577
383.71	7.341
383.91	7.916
384.12	7.157
384.32	7.413
384.53	6.995
384.73	6.413
384.94	5.600
385.14	6.946
385.35	6.299
385.55	7.186
385.76	6.663
385.96	6.880
386.17	7.246
386.37	6.662
386.58	6.947
386.78	7.638
386.99	5.626
387.19	7.232
387.40	5.281
387.60	7.645
387.81	6.959
388.01	5.922
388.22	7.232
388.42	7.554
388.63	8.029
388.83	8.210
389.04	5.129
389.24	6.638
389.45	6.683
389.65	6.149
389.86	6.510
390.06	5.736
390.27	6.223
390.47	6.751
390.68	5.809
390.88	8.080
391.09	7.368
391.29	7.032
391.50	6.869
391.70	6.676
391.91	6.034
392.11	6.513
392.32	6.478
392.52	6.597
392.73	6.705
392.93	6.652
393.14	6.202
393.34	6.042
393.55	7.130
393.75	6.479
393.95	5.954
394.16	6.835
394.36	7.413
394.57	6.794
394.77	6.452
394.98	6.142
395.18	6.887
395.39	6.211
395.59	6.909
395.80	6.017
396.00	6.501
396.21	7.237
396.41	5.898
396.61	7.563
396.82	6.465
397.02	7.907
397.23	7.159
397.43	6.160
397.64	5.311
397.84	7.475
398.05	5.016
398.25	6.796
398.45	6.024
398.66	6.719
398.86	6.154
399.07	6.836
399.27	5.784
399.48	7.079
399.68	5.880
399.89	6.087
400.09	7.308
400.29	6.334
400.50	6.074
400.70	6.876
400.91	5.757
401.11	6.102
401.32	7.446
401.52	4.797
401.72	6.122
401.93	7.673
402.13	6.001
402.34	6.075
402.54	5.421
402.75	8.366
402.95	5.014
403.15	7.520
403.36	5.485
403.56	7.319
403.77	5.316
403.97	6.204
404.17	6.204
404.38	6.590
404.58	4.801
404.79	6.260
404.99	5.946
405.19	5.572
405.40	6.496
405.60	6.632
405.81	4.987
406.01	6.170
406.21	5.492
406.42	6.276
406.62	6.385
406.83	6.964
407.03	6.521
407.23	5.559
407.44	5.256
407.64	6.672
407.85	5.974
408.05	6.400
408.25	5.781
408.46	6.877
408.66	7.130
408.87	6.064
409.07	5.851
409.27	6.187
409.48	6.627
409.68	6.544
409.88	5.617
410.09	6.174
410.29	6.316
410.50	7.403
410.70	5.485
410.90	6.166
411.11	5.577
411.31	5.295
411.51	6.682
411.72	6.823
411.92	5.639
412.12	5.800
412.33	5.606
412.53	5.524
412.74	5.035
412.94	5.934
413.14	6.157
413.35	6.256
413.55	6.615
413.75	7.005
413.96	5.899
414.16	6.036
414.36	5.980
414.57	5.900
414.77	5.492
414.97	6.672
415.18	6.326
415.38	6.103
415.58	6.151
415.79	5.648
415.99	5.509
416.19	6.584
416.40	5.872
416.60	5.455
416.80	4.972
417.01	5.326
417.21	4.922
417.41	6.152
417.62	5.441
417.82	5.926
418.02	4.544
418.23	5.671
418.43	5.470
418.63	5.440
418.84	5.455
419.04	5.097
419.24	5.976
419.45	6.107
419.65	6.081
419.85	5.581
420.06	5.762
420.26	5.897
420.46	5.483
420.67	5.874
420.87	5.990
421.07	6.500
421.28	5.734
421.48	6.407
421.68	6.300
421.88	5.732
422.09	5.959
422.29	5.936
422.49	5.471
422.70	6.241
422.90	5.718
423.10	6.280
423.31	6.376
423.51	6.461
423.71	5.391
423.91	5.992
424.12	6.005
424.32	5.925
424.52	6.065
424.73	5.823
424.93	5.949
425.13	5.473
425.33	5.342
425.54	6.195
425.74	5.920
425.94	6.697
426.15	5.873
426.35	5.738
426.55	6.561
426.75	5.816
426.96	5.668
427.16	5.917
427.36	5.879
427.57	6.483
427.77	5.588
427.97	6.044
428.17	6.073
428.38	6.318
428.58	4.514
428.78	6.207
428.98	5.309
429.19	5.856
429.39	5.189
429.59	5.649
429.79	4.466
430.00	4.336
430.20	4.565
430.40	5.695
430.60	5.060
430.81	5.223
431.01	5.013
431.21	6.087
431.41	5.164
431.62	5.388
431.82	5.100
432.02	6.290
432.22	5.218
432.43	4.874
432.63	4.842
432.83	5.498
433.03	4.852
433.24	4.935
433.44	5.010
433.64	5.807
433.84	4.921
434.05	5.750
434.25	4.760
434.45	5.991
434.65	6.053
434.85	6.204
435.06	5.470
435.26	5.817
435.46	5.273
435.66	5.788
435.87	5.185
436.07	5.756
436.27	5.484
436.47	5.137
436.67	4.689
436.88	6.039
437.08	5.236
437.28	5.068
437.48	5.656
437.69	5.925
437.89	4.933
438.09	5.941
438.29	4.899
438.49	5.929
438.70	5.397
438.90	4.913
439.10	4.971
439.30	5.582
439.50	4.577
439.71	5.917
439.91	5.283
440.11	6.044
440.31	5.425
440.51	5.418
440.72	5.341
440.92	5.496
441.12	5.605
441.32	6.057
441.52	5.821
441.72	5.865
441.93	5.630
442.13	6.005
442.33	5.333
442.53	6.358
442.73	4.942
442.94	5.787
443.14	5.382
443.34	6.033
443.54	5.781
443.74	6.143
443.94	5.764
444.15	5.065
444.35	4.980
444.55	6.037
444.75	5.611
444.95	5.717
445.15	5.564
445.36	5.801
445.56	4.789
445.76	5.676
445.96	5.189
446.16	5.109
446.36	4.712
446.57	6.013
446.77	4.903
446.97	5.433
447.17	5.991
447.37	5.894
447.57	5.703
447.77	5.731
447.98	5.559
448.18	6.186
448.38	5.450
448.58	5.747
448.78	6.139
448.98	5.875
449.18	5.116
449.39	5.610
449.59	5.203
449.79	5.550
449.99	5.325
450.19	5.717
450.39	4.995
450.59	5.555
450.79	5.060
451.00	5.822
451.20	7.085
451.40	4.955
451.60	4.862
451.80	5.979
452.00	5.349
452.20	5.740
452.40	5.524
452.61	5.396
452.81	4.984
453.01	5.423
453.21	5.006
453.41	5.372
453.61	5.150
453.81	5.373
454.01	5.447
454.21	5.464
454.42	5.984
454.62	5.709
454.82	5.330
455.02	5.451
455.22	4.626
455.42	5.245
455.62	4.644
455.82	5.523
456.02	4.942
456.23	5.167
456.43	5.730
456.63	4.859
456.83	4.343
457.03	5.627
457.23	4.892
457.43	5.431
457.63	4.942
457.83	5.603
458.03	4.467
458.23	5.232
458.43	4.803
458.64	4.575
458.84	4.870
459.04	5.364
459.24	4.844
459.44	5.126
459.64	5.378
459.84	5.130
460.04	4.919
460.24	5.407
460.44	5.504
460.64	5.401
460.84	5.237
461.04	5.889
461.24	5.528
461.45	5.932
461.65	5.597
461.85	5.766
462.05	5.608
462.25	5.736
462.45	6.008
462.65	5.330
462.85	4.592
463.05	5.542
463.25	4.520
463.45	5.751
463.65	5.052
463.85	5.281
464.05	5.422
464.25	5.047
464.45	5.799
464.65	4.983
464.85	4.964
465.05	5.075
465.26	5.052
465.46	5.501
465.66	5.201
465.86	5.377
466.06	5.384
466.26	5.109
466.46	4.457
466.66	5.117
466.86	5.051
467.06	5.257
467.26	4.937
467.46	5.850
467.66	4.955
467.86	4.893
468.06	4.829
468.26	4.863
468.46	5.091
468.66	4.946
468.86	4.373
469.06	5.573
469.26	4.455
469.46	5.303
469.66	4.526
469.86	5.132
470.06	4.647
470.26	5.743
470.46	4.732
470.66	5.583
470.86	4.465
471.06	5.179
471.26	4.302
471.46	4.269
471.66	5.365
471.86	4.771
472.06	4.936
472.26	5.592
