SpectraSuite Data File
++++++++++++++++++++++++++++++++++++
Date: Tue Sep 24 03:51:50 EST 2019
User: sgrac
Dark Spectrum Present: Yes
Reference Spectrum Present: Yes
Number of Sampled Component Spectra: 1
Spectrometers: USB4E01596
Integration Time (usec): 100000 (USB4E01596)
Spectra Averaged: 3 (USB4E01596)
Boxcar Smoothing: 0 (USB4E01596)
Correct for Electrical Dark: No (USB4E01596)
Strobe/Lamp Enabled: Yes (USB4E01596)
Correct for Detector Non-linearity: No (USB4E01596)
Correct for Stray Light: No (USB4E01596)
Number of Pixels in Processed Spectrum: 3648
>>>>>Begin Processed Spectral Data<<<<<
178.44	1536.364
178.66	1536.364
178.87	1536.364
179.09	679.245
179.30	775.556
179.52	-1263.333
179.74	807.547
179.95	589.552
180.17	-19150.000
180.38	-14900.000
180.60	507.865
180.82	-3292.857
181.03	1200.000
181.25	-1852.174
181.46	700.000
181.68	4322.222
181.89	-2037.500
182.11	622.727
182.33	1237.143
182.54	791.228
182.76	-840.000
182.97	285.714
183.19	1017.778
183.40	5388.889
183.62	593.902
183.84	644.000
184.05	952.174
184.27	545.679
184.48	-2255.556
184.70	478.495
184.91	680.263
185.13	731.579
185.34	552.688
185.56	1340.625
185.78	1612.500
185.99	2500.000
186.21	603.750
186.42	771.429
186.64	504.301
186.85	987.500
187.07	-4530.000
187.28	-2370.588
187.50	-39600.000
187.72	36000.000
187.93	-1662.500
188.15	1137.209
188.36	668.919
188.58	643.243
188.79	-6400.000
189.01	-3861.538
189.22	1884.000
189.44	504.651
189.65	639.394
189.87	-5871.429
190.09	1097.059
190.30	1092.105
190.52	2609.524
190.73	7916.667
190.95	1178.947
191.16	474.684
191.38	3718.182
191.59	3200.000
191.81	1202.941
192.02	989.362
192.24	863.265
192.45	2300.000
192.67	579.221
192.88	482.653
193.10	583.333
193.31	478.788
193.53	1123.684
193.74	-36700.000
193.96	704.225
194.18	413.208
194.39	530.435
194.61	524.074
194.82	422.881
195.04	406.542
195.25	0.000
195.47	-41000.000
195.68	471.000
195.90	456.471
196.11	583.133
196.33	981.395
196.54	478.899
196.76	1187.879
196.97	-3616.667
197.19	570.930
197.40	910.526
197.62	781.132
197.83	480.769
198.05	716.438
198.26	0.000
198.48	-702.222
198.69	1616.667
198.91	6171.429
199.12	-10150.000
199.34	491.111
199.55	-33400.000
199.77	2788.889
199.98	681.690
200.20	361.983
200.41	622.368
200.63	1208.824
200.84	-3438.462
201.06	573.418
201.27	1512.000
201.49	1038.298
201.70	541.379
201.91	763.380
202.13	670.149
202.34	-1700.000
202.56	361.268
202.77	5100.000
202.99	6250.000
203.20	588.406
203.42	1240.541
203.63	4975.000
203.85	417.647
204.06	726.923
204.28	347.458
204.49	1233.333
204.71	-1131.250
204.92	376.812
205.14	1445.161
205.35	1030.952
205.56	468.571
205.78	-968.000
205.99	1053.846
206.21	854.386
206.42	600.000
206.64	1956.522
206.85	533.735
207.07	-691.935
207.28	1512.000
207.50	546.739
207.71	756.250
207.93	13000.000
208.14	1323.684
208.35	-2741.667
208.57	-1096.552
208.78	317.483
209.00	990.000
209.21	429.703
209.43	-6066.667
209.64	316.477
209.86	692.982
210.07	909.524
210.28	1441.379
210.50	7383.333
210.71	1490.323
210.93	-3073.333
211.14	780.000
211.36	455.208
211.57	1733.333
211.78	4577.778
212.00	-2666.667
212.21	970.732
212.43	873.214
212.64	553.659
212.86	2139.130
213.07	575.000
213.29	3214.286
213.50	354.762
213.71	557.831
213.93	343.846
214.14	426.496
214.36	474.118
214.57	-4710.000
214.78	1197.436
215.00	429.752
215.21	1080.000
215.43	1760.000
215.64	442.593
215.86	478.302
216.07	8925.000
216.28	667.164
216.50	503.922
216.71	1296.552
216.93	-983.721
217.14	447.475
217.35	648.214
217.57	373.504
217.78	670.968
218.00	425.253
218.21	521.127
218.42	1922.222
218.64	2900.000
218.85	850.000
219.07	359.664
219.28	573.846
219.49	420.183
219.71	654.286
219.92	1564.000
220.14	930.435
220.35	3209.091
220.56	956.098
220.78	1166.667
220.99	575.385
221.21	648.649
221.42	628.378
221.63	9300.000
221.85	1332.143
222.06	1387.500
222.28	608.861
222.49	437.634
222.70	364.000
222.92	733.333
223.13	1933.333
223.34	1393.750
223.56	355.906
223.77	288.889
223.99	500.000
224.20	295.890
224.41	592.000
224.63	510.204
224.84	318.571
225.05	373.600
225.27	766.667
225.48	477.778
225.69	463.542
225.91	549.398
226.12	292.347
226.34	262.011
226.55	210.638
226.76	245.263
226.98	220.000
227.19	175.490
227.40	200.866
227.62	162.621
227.83	161.326
228.04	153.614
228.26	139.039
228.47	88.817
228.69	83.265
228.90	71.193
229.11	64.680
229.33	65.690
229.54	59.427
229.75	55.812
229.97	48.391
230.18	52.405
230.39	33.702
230.61	44.849
230.82	60.381
231.03	44.909
231.25	59.390
231.46	53.598
231.67	67.684
231.89	66.054
232.10	59.577
232.31	70.546
232.53	71.815
232.74	86.142
232.95	82.808
233.17	76.399
233.38	71.859
233.59	82.595
233.81	77.911
234.02	79.928
234.23	83.972
234.45	81.021
234.66	74.909
234.87	77.674
235.09	77.266
235.30	65.698
235.51	75.986
235.73	64.905
235.94	67.868
236.15	80.000
236.36	65.857
236.58	64.574
236.79	69.716
237.00	62.958
237.22	65.238
237.43	69.885
237.64	72.500
237.86	59.141
238.07	78.694
238.28	60.741
238.50	58.995
238.71	72.030
238.92	60.028
239.13	65.576
239.35	68.235
239.56	64.762
239.77	68.213
239.99	55.253
240.20	60.822
240.41	58.545
240.63	55.298
240.84	56.890
241.05	44.204
241.26	37.867
241.48	40.921
241.69	35.658
241.90	32.481
242.12	33.965
242.33	28.914
242.54	27.863
242.75	20.990
242.97	33.049
243.18	24.889
243.39	21.671
243.61	25.582
243.82	28.531
244.03	24.906
244.24	23.951
244.46	25.843
244.67	29.560
244.88	29.426
245.09	28.338
245.31	30.300
245.52	30.346
245.73	33.185
245.95	44.625
246.16	30.437
246.37	24.443
246.58	24.893
246.80	22.484
247.01	25.729
247.22	20.456
247.43	20.405
247.65	20.850
247.86	19.398
248.07	17.802
248.28	17.501
248.50	19.632
248.71	19.336
248.92	20.040
249.13	20.815
249.35	19.600
249.56	23.029
249.77	22.158
249.98	16.641
250.20	29.619
250.41	26.239
250.62	26.661
250.83	25.838
251.05	29.492
251.26	24.379
251.47	27.377
251.68	25.290
251.90	25.956
252.11	25.899
252.32	26.607
252.53	27.140
252.75	22.530
252.96	26.758
253.17	24.804
253.38	25.320
253.59	24.642
253.81	23.203
254.02	21.838
254.23	24.279
254.44	24.674
254.66	26.489
254.87	26.735
255.08	31.243
255.29	33.312
255.50	36.172
255.72	31.220
255.93	38.722
256.14	37.853
256.35	32.856
256.57	36.532
256.78	31.385
256.99	31.096
257.20	35.456
257.41	33.985
257.63	29.445
257.84	32.337
258.05	31.736
258.26	23.586
258.47	24.860
258.69	21.211
258.90	20.630
259.11	22.998
259.32	20.953
259.53	17.699
259.75	17.983
259.96	14.121
260.17	16.577
260.38	14.637
260.59	16.264
260.81	16.034
261.02	17.249
261.23	15.546
261.44	15.982
261.65	17.732
261.87	15.584
262.08	17.954
262.29	20.139
262.50	20.532
262.71	17.300
262.92	20.881
263.14	15.851
263.35	17.408
263.56	22.765
263.77	22.732
263.98	20.594
264.20	25.142
264.41	19.976
264.62	21.055
264.83	18.140
265.04	28.330
265.25	21.628
265.47	23.891
265.68	26.026
265.89	24.339
266.10	18.805
266.31	28.132
266.52	22.053
266.74	20.489
266.95	18.474
267.16	20.870
267.37	19.358
267.58	20.214
267.79	17.162
268.01	16.316
268.22	18.145
268.43	19.939
268.64	19.851
268.85	17.930
269.06	17.151
269.27	18.477
269.49	20.514
269.70	18.450
269.91	19.281
270.12	18.635
270.33	22.093
270.54	18.341
270.75	17.433
270.97	17.423
271.18	19.170
271.39	17.120
271.60	19.785
271.81	16.444
272.02	16.654
272.23	18.458
272.45	17.107
272.66	14.936
272.87	15.821
273.08	15.805
273.29	18.608
273.50	18.341
273.71	17.200
273.92	14.970
274.14	15.381
274.35	17.306
274.56	16.801
274.77	17.157
274.98	17.791
275.19	20.278
275.40	14.606
275.61	17.351
275.83	18.264
276.04	19.414
276.25	21.191
276.46	18.290
276.67	22.177
276.88	19.034
277.09	18.065
277.30	20.006
277.51	17.522
277.73	17.388
277.94	17.659
278.15	17.854
278.36	20.390
278.57	16.895
278.78	19.110
278.99	18.885
279.20	20.225
279.41	23.979
279.62	17.280
279.84	15.727
280.05	17.668
280.26	15.723
280.47	19.318
280.68	18.606
280.89	15.300
281.10	19.294
281.31	18.027
281.52	19.460
281.73	15.905
281.94	14.544
282.16	16.771
282.37	17.205
282.58	14.436
282.79	19.575
283.00	18.411
283.21	13.693
283.42	15.619
283.63	16.784
283.84	14.866
284.05	15.615
284.26	15.592
284.47	15.665
284.68	16.096
284.89	15.066
285.11	15.829
285.32	15.089
285.53	16.952
285.74	17.641
285.95	14.956
286.16	14.527
286.37	12.293
286.58	14.425
286.79	13.007
287.00	16.217
287.21	12.951
287.42	17.125
287.63	14.481
287.84	15.688
288.05	16.368
288.26	15.216
288.48	15.508
288.69	13.640
288.90	15.539
289.11	17.642
289.32	16.456
289.53	15.205
289.74	12.140
289.95	14.187
290.16	16.406
290.37	12.608
290.58	12.272
290.79	13.847
291.00	13.348
291.21	14.737
291.42	13.696
291.63	13.668
291.84	14.825
292.05	13.395
292.26	11.725
292.47	14.199
292.68	12.781
292.89	13.811
293.10	16.294
293.31	16.692
293.52	11.330
293.73	13.810
293.94	14.473
294.15	13.714
294.36	14.420
294.57	15.997
294.79	15.074
295.00	12.227
295.21	16.148
295.42	15.126
295.63	15.695
295.84	11.972
296.05	10.931
296.26	13.604
296.47	12.817
296.68	13.495
296.89	15.154
297.10	14.113
297.31	13.999
297.52	12.302
297.73	13.660
297.94	13.375
298.15	12.757
298.36	13.044
298.57	12.244
298.78	15.783
298.99	12.731
299.20	13.806
299.41	15.357
299.62	14.338
299.83	13.518
300.04	14.943
300.25	16.174
300.46	16.637
300.67	15.156
300.88	15.058
301.09	10.752
301.30	15.223
301.50	12.973
301.71	17.186
301.92	17.477
302.13	13.294
302.34	12.696
302.55	13.538
302.76	13.147
302.97	15.234
303.18	12.253
303.39	14.022
303.60	13.937
303.81	17.807
304.02	12.278
304.23	12.938
304.44	13.192
304.65	13.521
304.86	14.160
305.07	13.482
305.28	12.347
305.49	14.712
305.70	15.341
305.91	12.858
306.12	12.397
306.33	13.361
306.54	13.638
306.75	14.380
306.96	17.799
307.17	13.621
307.38	13.383
307.58	13.277
307.79	15.484
308.00	13.646
308.21	14.156
308.42	14.920
308.63	12.519
308.84	14.502
309.05	12.731
309.26	11.649
309.47	13.380
309.68	13.187
309.89	14.024
310.10	13.694
310.31	12.386
310.52	12.818
310.73	15.250
310.94	12.090
311.14	12.330
311.35	12.655
311.56	12.667
311.77	11.625
311.98	10.578
312.19	12.665
312.40	10.593
312.61	12.159
312.82	12.719
313.03	13.482
313.24	11.960
313.45	15.540
313.66	13.585
313.86	15.024
314.07	13.789
314.28	14.283
314.49	12.934
314.70	13.198
314.91	16.436
315.12	13.712
315.33	13.911
315.54	12.009
315.75	11.107
315.96	11.008
316.16	11.053
316.37	15.121
316.58	12.004
316.79	13.993
317.00	14.967
317.21	15.598
317.42	15.430
317.63	16.604
317.84	14.366
318.05	14.554
318.25	12.742
318.46	14.315
318.67	12.420
318.88	15.773
319.09	14.358
319.30	14.915
319.51	12.749
319.72	14.254
319.93	13.603
320.13	14.903
320.34	16.251
320.55	12.313
320.76	12.714
320.97	14.074
321.18	16.739
321.39	15.390
321.60	11.921
321.80	16.832
322.01	15.206
322.22	14.167
322.43	12.440
322.64	11.555
322.85	14.909
323.06	15.313
323.27	14.958
323.47	16.261
323.68	15.300
323.89	13.245
324.10	12.474
324.31	11.791
324.52	14.841
324.73	14.887
324.93	12.100
325.14	12.656
325.35	13.819
325.56	13.867
325.77	14.734
325.98	13.299
326.19	13.748
326.39	10.338
326.60	14.333
326.81	13.359
327.02	11.888
327.23	13.189
327.44	15.304
327.64	11.065
327.85	11.628
328.06	15.551
328.27	16.032
328.48	15.791
328.69	11.783
328.90	12.249
329.10	12.838
329.31	14.710
329.52	13.422
329.73	14.997
329.94	13.494
330.15	16.513
330.35	14.909
330.56	15.591
330.77	14.487
330.98	14.829
331.19	14.013
331.39	13.973
331.60	13.915
331.81	13.348
332.02	14.071
332.23	15.846
332.44	11.924
332.64	14.709
332.85	14.117
333.06	13.964
333.27	12.634
333.48	14.519
333.68	13.906
333.89	14.639
334.10	11.532
334.31	15.771
334.52	14.574
334.72	13.101
334.93	13.997
335.14	12.097
335.35	14.769
335.56	16.198
335.76	13.817
335.97	16.553
336.18	11.659
336.39	17.372
336.60	14.827
336.80	13.664
337.01	13.843
337.22	14.902
337.43	14.825
337.64	17.406
337.84	14.465
338.05	14.665
338.26	17.009
338.47	16.611
338.68	11.115
338.88	15.356
339.09	13.296
339.30	14.622
339.51	13.389
339.71	15.654
339.92	12.442
340.13	15.198
340.34	13.954
340.55	15.012
340.75	13.315
340.96	12.614
341.17	15.808
341.38	12.975
341.58	14.955
341.79	15.412
342.00	12.003
342.21	14.463
342.41	12.527
342.62	14.863
342.83	15.851
343.04	12.784
343.24	14.852
343.45	16.020
343.66	12.762
343.87	13.810
344.07	12.543
344.28	15.456
344.49	14.807
344.70	16.140
344.90	14.063
345.11	12.946
345.32	13.241
345.53	14.323
345.73	13.478
345.94	16.327
346.15	15.444
346.36	13.813
346.56	14.959
346.77	15.622
346.98	14.150
347.19	14.930
347.39	13.760
347.60	14.824
347.81	13.316
348.02	17.033
348.22	12.358
348.43	13.973
348.64	14.320
348.84	12.869
349.05	15.163
349.26	15.836
349.47	11.346
349.67	14.044
349.88	14.531
350.09	15.173
350.30	16.142
350.50	14.094
350.71	14.855
350.92	14.585
351.12	13.644
351.33	13.652
351.54	13.444
351.74	15.084
351.95	13.236
352.16	15.708
352.37	15.028
352.57	14.163
352.78	14.046
352.99	14.050
353.19	14.602
353.40	15.007
353.61	15.333
353.82	14.622
354.02	14.827
354.23	14.700
354.44	16.221
354.64	13.784
354.85	14.692
355.06	14.048
355.26	12.602
355.47	14.237
355.68	16.610
355.88	14.730
356.09	13.708
356.30	12.021
356.51	14.260
356.71	13.827
356.92	11.479
357.13	15.818
357.33	15.519
357.54	14.630
357.75	11.881
357.95	15.251
358.16	12.069
358.37	16.881
358.57	11.903
358.78	16.198
358.99	12.854
359.19	13.292
359.40	14.240
359.61	12.804
359.81	15.766
360.02	15.800
360.23	13.212
360.43	14.215
360.64	12.749
360.85	13.664
361.05	12.583
361.26	14.585
361.47	13.275
361.67	14.414
361.88	10.743
362.09	14.267
362.29	11.843
362.50	13.326
362.70	11.036
362.91	13.892
363.12	12.390
363.32	12.438
363.53	13.013
363.74	14.302
363.94	11.704
364.15	14.483
364.36	14.429
364.56	14.291
364.77	13.604
364.98	16.643
365.18	14.363
365.39	14.369
365.59	12.408
365.80	13.689
366.01	14.487
366.21	12.432
366.42	12.444
366.63	14.936
366.83	12.463
367.04	11.339
367.24	13.919
367.45	11.543
367.66	10.535
367.86	13.675
368.07	11.823
368.28	12.688
368.48	12.995
368.69	11.508
368.89	13.358
369.10	13.676
369.31	13.311
369.51	13.290
369.72	14.001
369.92	14.789
370.13	10.565
370.34	12.698
370.54	9.536
370.75	12.581
370.95	10.995
371.16	12.667
371.37	10.707
371.57	11.669
371.78	11.712
371.98	13.387
372.19	12.024
372.40	13.242
372.60	12.730
372.81	12.614
373.01	10.490
373.22	11.570
373.43	13.007
373.63	12.728
373.84	12.217
374.04	12.092
374.25	12.084
374.46	13.251
374.66	13.077
374.87	13.147
375.07	10.214
375.28	10.616
375.48	12.364
375.69	12.149
375.90	9.913
376.10	10.027
376.31	10.730
376.51	10.739
376.72	10.084
376.92	10.524
377.13	11.743
377.34	12.622
377.54	11.855
377.75	12.655
377.95	11.256
378.16	13.129
378.36	12.625
378.57	12.191
378.77	11.059
378.98	11.061
379.19	11.473
379.39	11.058
379.60	12.400
379.80	11.743
380.01	12.460
380.21	11.428
380.42	12.037
380.62	10.855
380.83	11.813
381.04	10.521
381.24	11.328
381.45	11.349
381.65	9.836
381.86	10.696
382.06	12.157
382.27	9.816
382.47	10.477
382.68	12.340
382.88	10.492
383.09	11.130
383.29	11.083
383.50	12.366
383.71	10.256
383.91	10.942
384.12	10.204
384.32	11.572
384.53	10.819
384.73	9.581
384.94	9.916
385.14	11.249
385.35	10.214
385.55	11.466
385.76	10.688
385.96	10.617
386.17	11.248
386.37	10.704
386.58	11.000
386.78	11.978
386.99	9.606
387.19	11.553
387.40	9.730
387.60	12.054
387.81	10.516
388.01	10.087
388.22	11.463
388.42	12.111
388.63	11.900
388.83	12.230
389.04	8.804
389.24	11.155
389.45	10.761
389.65	10.396
389.86	10.325
390.06	10.447
390.27	9.922
390.47	10.371
390.68	10.170
390.88	12.366
391.09	10.974
391.29	10.876
391.50	11.168
391.70	10.668
391.91	9.470
392.11	10.859
392.32	10.649
392.52	11.498
392.73	10.396
392.93	11.240
393.14	10.070
393.34	10.063
393.55	11.326
393.75	9.572
393.95	9.792
394.16	11.011
394.36	11.318
394.57	11.271
394.77	10.212
394.98	10.477
395.18	11.150
395.39	9.800
395.59	10.590
395.80	10.288
396.00	10.330
396.21	11.578
396.41	9.160
396.61	11.326
396.82	10.278
397.02	11.692
397.23	10.997
397.43	10.422
397.64	8.927
397.84	11.383
398.05	8.809
398.25	11.241
398.45	10.092
398.66	10.866
398.86	10.089
399.07	10.920
399.27	10.336
399.48	11.554
399.68	9.822
399.89	10.241
400.09	11.079
400.29	10.645
400.50	10.607
400.70	10.045
400.91	9.939
401.11	10.284
401.32	10.804
401.52	8.871
401.72	9.053
401.93	11.411
402.13	10.389
402.34	9.780
402.54	9.121
402.75	11.777
402.95	8.065
403.15	11.774
403.36	8.583
403.56	11.234
403.77	9.106
403.97	9.884
404.17	9.281
404.38	10.519
404.58	8.621
404.79	10.096
404.99	9.949
405.19	9.750
405.40	10.433
405.60	10.522
405.81	8.866
406.01	10.496
406.21	9.817
406.42	10.590
406.62	9.646
406.83	10.936
407.03	10.356
407.23	9.365
407.44	9.224
407.64	10.639
407.85	10.296
408.05	10.284
408.25	10.003
408.46	10.928
408.66	9.709
408.87	9.865
409.07	9.313
409.27	9.523
409.48	10.111
409.68	10.710
409.88	8.337
410.09	9.711
410.29	9.976
410.50	11.600
410.70	8.540
410.90	9.592
411.11	9.212
411.31	9.181
411.51	10.459
411.72	10.485
411.92	9.523
412.12	9.608
412.33	9.284
412.53	9.172
412.74	8.685
412.94	9.692
413.14	9.432
413.35	10.005
413.55	10.162
413.75	10.488
413.96	9.027
414.16	10.370
414.36	9.424
414.57	10.220
414.77	9.162
414.97	10.291
415.18	9.828
415.38	9.121
415.58	9.541
415.79	9.026
415.99	9.130
416.19	10.708
416.40	9.406
416.60	9.946
416.80	8.735
417.01	9.027
417.21	8.364
417.41	9.989
417.62	9.492
417.82	9.759
418.02	8.925
418.23	9.520
418.43	9.335
418.63	9.926
418.84	9.429
419.04	9.301
419.24	10.131
419.45	9.783
419.65	10.114
419.85	9.803
420.06	9.974
420.26	10.034
420.46	9.767
420.67	10.028
420.87	9.511
421.07	10.374
421.28	9.880
421.48	10.429
421.68	9.964
421.88	10.047
422.09	9.905
422.29	10.246
422.49	9.742
422.70	10.421
422.90	10.079
423.10	10.584
423.31	10.087
423.51	10.462
423.71	9.882
423.91	9.985
424.12	9.889
424.32	10.269
424.52	9.927
424.73	9.683
424.93	9.991
425.13	9.880
425.33	9.665
425.54	10.562
425.74	9.918
425.94	10.598
426.15	9.773
426.35	9.926
426.55	10.307
426.75	10.327
426.96	10.135
427.16	9.791
427.36	10.523
427.57	10.639
427.77	10.030
427.97	10.529
428.17	10.235
428.38	10.043
428.58	8.783
428.78	10.665
428.98	9.310
429.19	9.954
429.39	8.656
429.59	10.043
429.79	8.111
430.00	8.537
430.20	8.498
430.40	9.380
430.60	9.242
430.81	9.372
431.01	9.152
431.21	10.208
431.41	9.226
431.62	9.075
431.82	9.092
432.02	10.148
432.22	8.419
432.43	9.393
432.63	8.474
432.83	9.076
433.03	8.900
433.24	8.388
433.44	9.008
433.64	9.456
433.84	8.553
434.05	9.388
434.25	8.758
434.45	10.093
434.65	9.925
434.85	9.703
435.06	9.480
435.26	10.047
435.46	9.289
435.66	10.267
435.87	8.969
436.07	9.975
436.27	9.706
436.47	9.639
436.67	8.766
436.88	10.054
437.08	9.232
437.28	9.080
437.48	9.268
437.69	9.684
437.89	8.896
438.09	9.740
438.29	8.632
438.49	9.562
438.70	9.401
438.90	9.282
439.10	8.858
439.30	9.276
439.50	8.437
439.71	9.399
439.91	9.161
440.11	9.823
440.31	9.599
440.51	9.320
440.72	8.825
440.92	9.054
441.12	9.166
441.32	9.717
441.52	9.232
441.72	9.452
441.93	9.433
442.13	9.739
442.33	9.739
442.53	10.462
442.73	9.234
442.94	9.773
443.14	9.330
443.34	10.223
443.54	9.486
443.74	10.080
443.94	9.516
444.15	9.394
444.35	8.866
444.55	9.771
444.75	9.014
444.95	9.353
445.15	9.489
445.36	9.327
445.56	8.545
445.76	9.481
445.96	8.697
446.16	8.571
446.36	8.630
446.57	9.539
446.77	8.793
446.97	9.439
447.17	9.350
447.37	9.503
447.57	9.148
447.77	9.489
447.98	9.046
448.18	9.824
448.38	9.366
448.58	9.755
448.78	9.681
448.98	9.587
449.18	9.088
449.39	9.450
449.59	9.170
449.79	9.591
449.99	9.413
450.19	9.705
450.39	9.260
450.59	9.459
450.79	9.399
451.00	9.891
451.20	10.797
451.40	9.183
451.60	8.390
451.80	9.664
452.00	9.062
452.20	9.320
452.40	9.029
452.61	9.007
452.81	8.930
453.01	9.316
453.21	8.649
453.41	9.056
453.61	9.421
453.81	9.197
454.01	9.180
454.21	9.360
454.42	9.071
454.62	9.667
454.82	8.834
455.02	9.464
455.22	8.172
455.42	9.179
455.62	8.201
455.82	9.206
456.02	8.453
456.23	8.757
456.43	9.362
456.63	8.620
456.83	7.969
457.03	8.919
457.23	8.716
457.43	8.879
457.63	8.863
457.83	9.389
458.03	8.107
458.23	8.732
458.43	8.663
458.64	8.773
458.84	8.935
459.04	8.823
459.24	8.751
459.44	8.948
459.64	9.101
459.84	9.164
460.04	8.453
460.24	9.221
460.44	9.067
460.64	9.336
460.84	9.094
461.04	9.324
461.24	9.462
461.45	9.660
461.65	9.240
461.85	9.775
462.05	9.586
462.25	9.657
462.45	9.737
462.65	9.525
462.85	8.951
463.05	9.537
463.25	8.354
463.45	9.293
463.65	9.110
463.85	9.369
464.05	9.083
464.25	8.917
464.45	9.075
464.65	8.776
464.85	7.998
465.05	8.736
465.26	8.835
465.46	9.434
