SpectraSuite Data File
++++++++++++++++++++++++++++++++++++
Date: Tue Sep 24 04:05:48 EST 2019
User: sgrac
Dark Spectrum Present: Yes
Reference Spectrum Present: Yes
Number of Sampled Component Spectra: 1
Spectrometers: USB4E01596
Integration Time (usec): 100000 (USB4E01596)
Spectra Averaged: 3 (USB4E01596)
Boxcar Smoothing: 0 (USB4E01596)
Correct for Electrical Dark: No (USB4E01596)
Strobe/Lamp Enabled: Yes (USB4E01596)
Correct for Detector Non-linearity: No (USB4E01596)
Correct for Stray Light: No (USB4E01596)
Number of Pixels in Processed Spectrum: 3648
>>>>>Begin Processed Spectral Data<<<<<
178.44	1695.455
178.66	1695.455
178.87	1695.455
179.09	824.528
179.30	768.889
179.52	-1446.667
179.74	871.698
179.95	677.612
180.17	-19000.000
180.38	-15333.333
180.60	577.528
180.82	-4007.143
181.03	1178.378
181.25	-1726.087
181.46	631.944
181.68	4788.889
181.89	-2137.500
182.11	666.667
182.33	1491.429
182.54	914.035
182.76	-972.500
182.97	250.311
183.19	984.444
183.40	5000.000
183.62	573.171
183.84	629.333
184.05	917.391
184.27	519.753
184.48	-2411.111
184.70	503.226
184.91	625.000
185.13	680.263
185.34	555.914
185.56	1375.000
185.78	1566.667
185.99	2706.250
186.21	612.500
186.42	1042.857
186.64	461.290
186.85	850.000
187.07	-4060.000
187.28	-2029.412
187.50	-42200.000
187.72	42200.000
187.93	-1875.000
188.15	1227.907
188.36	705.405
188.58	608.108
188.79	-6642.857
189.01	-3284.615
189.22	1980.000
189.44	540.698
189.65	730.303
189.87	-6114.286
190.09	1173.529
190.30	1213.158
190.52	2161.905
190.73	6900.000
190.95	1368.421
191.16	558.228
191.38	3790.909
191.59	3457.143
191.81	1364.706
192.02	1110.638
192.24	989.796
192.45	2729.412
192.67	580.519
192.88	425.510
193.10	698.485
193.31	453.535
193.53	1055.263
193.74	-38900.000
193.96	826.761
194.18	402.830
194.39	480.435
194.61	492.593
194.82	376.271
195.04	442.991
195.25	0.000
195.47	-42300.000
195.68	489.000
195.90	532.941
196.11	548.193
196.33	886.047
196.54	504.587
196.76	1287.879
196.97	-3825.000
197.19	576.744
197.40	919.298
197.62	935.849
197.83	474.038
198.05	775.342
198.26	0.000
198.48	-822.222
198.69	1513.333
198.91	4842.857
199.12	-10175.000
199.34	563.333
199.55	-44800.000
199.77	2444.444
199.98	722.535
200.20	375.207
200.41	638.158
200.63	1205.882
200.84	-3330.769
201.06	470.886
201.27	1848.000
201.49	1021.277
201.70	564.368
201.91	726.761
202.13	661.194
202.34	-1780.000
202.56	318.310
202.77	5862.500
202.99	6012.500
203.20	713.043
203.42	1224.324
203.63	5000.000
203.85	424.370
204.06	786.538
204.28	412.712
204.49	1454.545
204.71	-1296.875
204.92	373.913
205.14	1325.806
205.35	985.714
205.56	451.429
205.78	-986.000
205.99	1043.590
206.21	847.368
206.42	565.152
206.64	2213.043
206.85	562.651
207.07	-609.677
207.28	1568.000
207.50	506.522
207.71	864.583
207.93	14366.667
208.14	1281.579
208.35	-2691.667
208.57	-1103.448
208.78	360.839
209.00	1160.000
209.21	470.297
209.43	-6350.000
209.64	267.614
209.86	782.456
210.07	1002.381
210.28	1417.241
210.50	7566.667
210.71	1564.516
210.93	-2793.333
211.14	840.000
211.36	503.125
211.57	1825.926
211.78	4544.444
212.00	-2527.778
212.21	1124.390
212.43	969.643
212.64	608.537
212.86	1913.043
213.07	741.176
213.29	3150.000
213.50	360.317
213.71	530.120
213.93	360.000
214.14	365.812
214.36	458.824
214.57	-4200.000
214.78	1217.949
215.00	416.529
215.21	1092.500
215.43	1848.000
215.64	418.519
215.86	405.660
216.07	9825.000
216.28	632.836
216.50	529.412
216.71	1631.034
216.93	-1188.372
217.14	505.051
217.35	762.500
217.57	346.154
217.78	672.581
218.00	443.434
218.21	516.901
218.42	1837.037
218.64	3126.667
218.85	882.143
219.07	412.605
219.28	672.308
219.49	462.385
219.71	668.571
219.92	1372.000
220.14	915.217
220.35	3954.545
220.56	992.683
220.78	1321.212
220.99	766.154
221.21	652.703
221.42	613.514
221.63	9225.000
221.85	1446.429
222.06	1600.000
222.28	660.759
222.49	548.387
222.70	509.000
222.92	705.263
223.13	1916.667
223.34	1150.000
223.56	392.913
223.77	300.000
223.99	565.556
224.20	328.082
224.41	529.333
224.63	519.388
224.84	299.286
225.05	358.400
225.27	807.843
225.48	456.566
225.69	548.958
225.91	555.422
226.12	278.061
226.34	262.011
226.55	197.021
226.76	247.895
226.98	251.875
227.19	216.176
227.40	226.840
227.62	207.282
227.83	130.939
228.04	148.193
228.26	119.520
228.47	90.108
228.69	77.347
228.90	66.239
229.11	70.939
229.33	60.809
229.54	54.773
229.75	51.414
229.97	52.205
230.18	57.114
230.39	40.644
230.61	43.392
230.82	55.366
231.03	42.337
231.25	59.507
231.46	59.057
231.67	65.522
231.89	68.505
232.10	64.930
232.31	68.409
232.53	87.261
232.74	74.173
232.95	87.697
233.17	76.748
233.38	68.844
233.59	91.614
233.81	82.534
234.02	86.618
234.23	79.965
234.45	93.461
234.66	70.909
234.87	83.876
235.09	78.187
235.30	69.186
235.51	81.990
235.73	70.338
235.94	67.398
236.15	77.460
236.36	70.410
236.58	74.290
236.79	75.079
237.00	60.322
237.22	72.698
237.43	69.597
237.64	68.333
237.86	67.729
238.07	79.316
238.28	65.185
238.50	60.714
238.71	69.474
238.92	59.748
239.13	69.844
239.35	71.176
239.56	71.973
239.77	69.986
239.99	58.096
240.20	61.306
240.41	56.121
240.63	51.888
240.84	58.068
241.05	38.454
241.26	44.444
241.48	46.481
241.69	39.890
241.90	32.481
242.12	27.336
242.33	29.359
242.54	27.481
242.75	24.851
242.97	26.610
243.18	22.084
243.39	23.638
243.61	25.709
243.82	25.787
244.03	22.204
244.24	20.050
244.46	23.259
244.67	26.513
244.88	26.555
245.09	28.549
245.31	26.471
245.52	26.553
245.73	33.742
245.95	44.000
246.16	30.845
246.37	24.332
246.58	20.982
246.80	20.828
247.01	21.866
247.22	19.148
247.43	17.787
247.65	18.539
247.86	17.218
248.07	14.883
248.28	14.798
248.50	15.233
248.71	16.762
248.92	16.378
249.13	16.960
249.35	14.534
249.56	20.591
249.77	18.580
249.98	17.919
250.20	25.378
250.41	19.790
250.62	26.259
250.83	22.441
251.05	28.504
251.26	29.196
251.47	30.649
251.68	24.296
251.90	25.738
252.11	28.832
252.32	26.451
252.53	27.724
252.75	21.124
252.96	26.183
253.17	22.785
253.38	22.429
253.59	24.275
253.81	20.513
254.02	21.793
254.23	28.221
254.44	22.467
254.66	24.202
254.87	27.115
255.08	36.753
255.29	32.670
255.50	32.739
255.72	30.462
255.93	38.281
256.14	41.455
256.35	30.445
256.57	38.040
256.78	28.810
256.99	32.292
257.20	35.121
257.41	29.004
257.63	32.598
257.84	29.588
258.05	30.248
258.26	22.625
258.47	25.420
258.69	19.474
258.90	20.803
259.11	19.905
259.32	20.840
259.53	17.120
259.75	16.593
259.96	11.784
260.17	14.631
260.38	12.452
260.59	13.050
260.81	12.889
261.02	13.239
261.23	13.349
261.44	13.364
261.65	13.643
261.87	12.586
262.08	15.088
262.29	15.461
262.50	14.682
262.71	15.635
262.92	18.822
263.14	13.779
263.35	18.455
263.56	22.765
263.77	21.227
263.98	20.755
264.20	22.681
264.41	21.112
264.62	20.260
264.83	19.522
265.04	26.732
265.25	20.369
265.47	23.891
265.68	22.408
265.89	22.629
266.10	17.478
266.31	23.560
266.52	20.164
266.74	18.510
266.95	16.595
267.16	18.019
267.37	19.669
267.58	19.079
267.79	16.308
268.01	16.630
268.22	17.835
268.43	18.226
268.64	17.731
268.85	17.128
269.06	15.316
269.27	20.825
269.49	18.517
269.70	17.121
269.91	16.969
270.12	17.856
270.33	19.274
270.54	15.416
270.75	14.491
270.97	15.003
271.18	18.315
271.39	16.706
271.60	17.556
271.81	14.590
272.02	15.090
272.23	17.064
272.45	14.762
272.66	13.078
272.87	15.773
273.08	13.752
273.29	16.228
273.50	13.079
273.71	15.067
273.92	12.497
274.14	13.122
274.35	15.076
274.56	15.827
274.77	15.637
274.98	13.563
275.19	17.165
275.40	13.351
275.61	14.676
275.83	17.758
276.04	18.036
276.25	18.770
276.46	19.281
276.67	20.156
276.88	19.834
277.09	16.245
277.30	17.843
277.51	17.550
277.73	16.989
277.94	16.492
278.15	17.599
278.36	19.604
278.57	15.137
278.78	17.237
278.99	16.010
279.20	19.708
279.41	22.157
279.62	12.595
279.84	13.947
280.05	15.187
280.26	13.408
280.47	14.036
280.68	16.676
280.89	14.286
281.10	16.569
281.31	18.132
281.52	15.224
281.73	12.405
281.94	13.909
282.16	16.964
282.37	15.724
282.58	13.658
282.79	17.379
283.00	15.748
283.21	11.245
283.42	14.071
283.63	15.951
283.84	13.658
284.05	12.283
284.26	14.581
284.47	12.795
284.68	14.462
284.89	13.365
285.11	13.436
285.32	12.384
285.53	14.018
285.74	15.302
285.95	12.923
286.16	11.589
286.37	10.331
286.58	12.949
286.79	11.351
287.00	12.892
287.21	11.173
287.42	14.155
287.63	11.893
287.84	11.365
288.05	15.075
288.26	11.158
288.48	13.113
288.69	11.607
288.90	13.776
289.11	13.933
289.32	12.878
289.53	12.828
289.74	11.258
289.95	12.352
290.16	13.352
290.37	11.285
290.58	11.120
290.79	11.446
291.00	12.220
291.21	11.237
291.42	11.276
291.63	11.376
291.84	12.647
292.05	11.206
292.26	11.023
292.47	12.897
292.68	11.993
292.89	12.330
293.10	13.308
293.31	13.635
293.52	9.996
293.73	12.478
293.94	13.675
294.15	12.500
294.36	12.865
294.57	14.193
294.79	14.716
295.00	9.599
295.21	14.993
295.42	14.017
295.63	14.100
295.84	10.726
296.05	10.876
296.26	11.470
296.47	11.012
296.68	10.909
296.89	13.987
297.10	13.304
297.31	12.667
297.52	10.641
297.73	11.424
297.94	11.291
298.15	11.319
298.36	10.821
298.57	10.583
298.78	12.810
298.99	9.952
299.20	10.805
299.41	12.245
299.62	12.485
299.83	10.975
300.04	11.925
300.25	14.215
300.46	14.051
300.67	14.408
300.88	12.891
301.09	9.744
301.30	13.655
301.50	10.786
301.71	15.783
301.92	15.153
302.13	11.370
302.34	11.515
302.55	11.885
302.76	12.396
302.97	12.819
303.18	12.708
303.39	13.012
303.60	13.312
303.81	15.708
304.02	10.923
304.23	11.771
304.44	10.990
304.65	12.679
304.86	12.562
305.07	11.317
305.28	11.338
305.49	12.394
305.70	13.623
305.91	11.408
306.12	10.764
306.33	11.846
306.54	10.919
306.75	13.655
306.96	14.774
307.17	11.294
307.38	12.341
307.58	12.601
307.79	13.168
308.00	12.836
308.21	12.634
308.42	12.867
308.63	11.794
308.84	12.390
309.05	12.473
309.26	10.076
309.47	10.956
309.68	12.106
309.89	13.900
310.10	10.788
310.31	10.892
310.52	10.659
310.73	13.617
310.94	8.762
311.14	10.358
311.35	11.203
311.56	11.347
311.77	9.588
311.98	8.604
312.19	9.740
312.40	9.817
312.61	10.597
312.82	11.578
313.03	10.645
313.24	10.953
313.45	12.272
313.66	11.630
313.86	13.017
314.07	12.523
314.28	12.412
314.49	11.392
314.70	13.353
314.91	14.372
315.12	11.321
315.33	12.376
315.54	11.393
315.75	10.275
315.96	10.407
316.16	9.457
316.37	13.726
316.58	11.040
316.79	11.206
317.00	13.775
317.21	11.845
317.42	14.269
317.63	14.232
317.84	11.349
318.05	11.381
318.25	11.972
318.46	11.973
318.67	10.752
318.88	12.317
319.09	12.781
319.30	13.548
319.51	11.711
319.72	13.609
319.93	11.997
320.13	11.565
320.34	12.621
320.55	11.241
320.76	13.285
320.97	12.612
321.18	14.039
321.39	13.251
321.60	12.028
321.80	13.418
322.01	12.285
322.22	11.679
322.43	10.831
322.64	11.425
322.85	12.920
323.06	13.747
323.27	12.166
323.47	13.335
323.68	12.452
323.89	12.021
324.10	12.015
324.31	10.567
324.52	11.744
324.73	13.050
324.93	9.609
325.14	11.561
325.35	12.334
325.56	12.349
325.77	12.964
325.98	12.095
326.19	12.034
326.39	8.205
326.60	11.570
326.81	10.628
327.02	10.166
327.23	9.833
327.44	13.544
327.64	7.841
327.85	9.033
328.06	11.232
328.27	13.848
328.48	13.599
328.69	10.689
328.90	10.631
329.10	12.412
329.31	12.466
329.52	11.068
329.73	11.450
329.94	10.862
330.15	13.015
330.35	12.243
330.56	12.512
330.77	11.029
330.98	12.205
331.19	12.818
331.39	11.801
331.60	10.848
331.81	10.143
332.02	12.660
332.23	13.015
332.44	9.620
332.64	11.970
332.85	11.892
333.06	11.618
333.27	9.956
333.48	11.252
333.68	10.349
333.89	12.111
334.10	9.041
334.31	12.207
334.52	11.057
334.72	11.045
334.93	11.146
335.14	10.493
335.35	10.871
335.56	13.316
335.76	11.068
335.97	12.245
336.18	9.330
336.39	13.362
336.60	11.324
336.80	11.386
337.01	10.861
337.22	11.512
337.43	12.647
337.64	13.744
337.84	12.885
338.05	11.683
338.26	13.734
338.47	13.515
338.68	8.869
338.88	13.618
339.09	9.850
339.30	11.417
339.51	10.359
339.71	13.108
339.92	10.207
340.13	11.174
340.34	11.321
340.55	10.520
340.75	11.843
340.96	9.949
341.17	12.971
341.38	10.492
341.58	11.836
341.79	11.817
342.00	10.493
342.21	11.902
342.41	9.579
342.62	11.720
342.83	12.806
343.04	9.720
343.24	11.923
343.45	12.518
343.66	10.510
343.87	11.187
344.07	9.960
344.28	10.686
344.49	11.554
344.70	12.753
344.90	10.742
345.11	11.271
345.32	10.471
345.53	10.735
345.73	10.320
345.94	12.901
346.15	13.250
346.36	10.894
346.56	11.420
346.77	12.804
346.98	11.515
347.19	11.402
347.39	11.275
347.60	11.381
347.81	11.618
348.02	13.004
348.22	9.780
348.43	11.399
348.64	10.417
348.84	10.555
349.05	11.415
349.26	13.459
349.47	9.899
349.67	10.971
349.88	13.136
350.09	11.755
350.30	13.873
350.50	12.325
350.71	12.855
350.92	12.012
351.12	11.430
351.33	11.853
351.54	10.540
351.74	11.822
351.95	11.918
352.16	11.777
352.37	12.399
352.57	11.292
352.78	12.401
352.99	13.137
353.19	11.762
353.40	12.970
353.61	13.388
353.82	13.154
354.02	13.162
354.23	13.583
354.44	13.912
354.64	12.783
354.85	13.640
355.06	12.234
355.26	11.438
355.47	12.038
355.68	15.435
355.88	13.134
356.09	12.605
356.30	10.663
356.51	13.271
356.71	11.787
356.92	9.953
357.13	13.217
357.33	14.870
357.54	12.497
357.75	9.976
357.95	13.228
358.16	10.370
358.37	14.456
358.57	10.380
358.78	14.254
358.99	11.717
359.19	12.678
359.40	12.893
359.61	12.264
359.81	12.846
360.02	14.657
360.23	11.585
360.43	12.612
360.64	11.658
360.85	11.858
361.05	10.973
361.26	14.211
361.47	12.246
361.67	13.305
361.88	9.251
362.09	12.510
362.29	10.722
362.50	10.980
362.70	9.812
362.91	13.769
363.12	11.088
363.32	11.584
363.53	12.253
363.74	12.710
363.94	10.080
364.15	14.205
364.36	13.121
364.56	11.361
364.77	13.402
364.98	15.164
365.18	11.673
365.39	13.621
365.59	10.937
365.80	12.591
366.01	13.111
366.21	11.934
366.42	10.604
366.63	13.453
366.83	11.269
367.04	10.310
367.24	12.947
367.45	10.348
367.66	9.580
367.86	11.905
368.07	10.691
368.28	12.402
368.48	11.191
368.69	11.529
368.89	11.758
369.10	12.401
369.31	12.020
369.51	13.434
369.72	13.058
369.92	13.697
370.13	10.242
370.34	11.891
370.54	8.161
370.75	11.597
370.95	10.305
371.16	11.835
371.37	10.665
371.57	11.168
371.78	10.929
371.98	11.813
372.19	11.053
372.40	11.761
372.60	12.039
372.81	11.338
373.01	9.320
373.22	10.501
373.43	11.333
373.63	11.944
373.84	11.382
374.04	11.687
374.25	10.870
374.46	12.704
374.66	11.570
374.87	12.578
375.07	9.480
375.28	10.839
375.48	10.483
375.69	11.360
375.90	8.968
376.10	8.838
376.31	9.636
376.51	9.775
376.72	9.462
376.92	8.942
377.13	10.847
377.34	11.097
377.54	10.239
377.75	12.120
377.95	10.481
378.16	11.721
378.36	11.113
378.57	10.622
378.77	10.426
378.98	10.898
379.19	9.878
379.39	9.708
379.60	10.442
379.80	10.433
380.01	10.978
380.21	9.576
380.42	11.507
380.62	9.676
380.83	10.420
381.04	9.598
381.24	10.195
381.45	10.251
381.65	9.319
381.86	10.130
382.06	11.264
382.27	8.429
382.47	9.895
382.68	11.387
382.88	10.082
383.09	9.163
383.29	10.237
383.50	11.694
383.71	9.147
383.91	10.331
384.12	8.882
384.32	10.351
384.53	9.434
384.73	8.793
384.94	8.211
385.14	9.834
385.35	8.977
385.55	9.888
385.76	9.457
385.96	9.898
386.17	9.479
386.37	9.732
386.58	9.505
386.78	10.976
386.99	8.503
387.19	9.809
387.40	8.566
387.60	11.181
387.81	9.363
388.01	8.933
388.22	10.328
388.42	11.319
388.63	10.888
388.83	11.454
389.04	8.578
389.24	8.924
389.45	9.772
389.65	9.701
389.86	9.719
390.06	8.661
390.27	8.886
390.47	9.656
390.68	8.536
390.88	10.223
391.09	9.596
391.29	10.761
391.50	8.871
391.70	10.205
391.91	8.413
392.11	9.601
392.32	9.700
392.52	9.889
392.73	9.642
392.93	9.530
393.14	8.497
393.34	9.028
393.55	9.435
393.75	9.054
393.95	8.660
394.16	9.826
394.36	9.877
394.57	10.676
394.77	9.312
394.98	9.048
395.18	9.295
395.39	9.143
395.59	9.329
395.80	8.914
396.00	9.139
396.21	10.257
396.41	8.485
396.61	10.467
396.82	9.586
397.02	11.145
397.23	9.877
397.43	9.173
397.64	8.106
397.84	10.275
398.05	7.867
398.25	9.514
398.45	8.403
398.66	9.934
398.86	9.219
399.07	10.158
399.27	8.796
399.48	10.312
399.68	8.742
399.89	8.965
400.09	9.981
400.29	9.466
400.50	9.341
400.70	9.635
400.91	8.590
401.11	8.766
401.32	9.144
401.52	7.566
401.72	8.311
401.93	10.504
402.13	8.632
402.34	9.094
402.54	7.467
402.75	11.042
402.95	6.978
403.15	10.097
403.36	7.739
403.56	9.600
403.77	7.582
403.97	8.597
404.17	8.212
404.38	9.051
404.58	7.842
404.79	8.891
404.99	8.889
405.19	8.241
405.40	8.792
405.60	9.609
405.81	7.972
406.01	8.820
406.21	8.568
406.42	9.129
406.62	8.521
406.83	9.726
407.03	9.193
407.23	7.920
407.44	8.175
407.64	9.812
407.85	9.198
408.05	8.877
408.25	8.926
408.46	9.605
408.66	9.449
408.87	8.266
409.07	9.033
409.27	8.177
409.48	9.158
409.68	9.625
409.88	7.284
410.09	8.345
410.29	8.811
410.50	10.313
410.70	7.522
410.90	8.389
411.11	7.713
411.31	7.881
411.51	9.368
411.72	9.574
411.92	8.129
412.12	8.920
412.33	7.775
412.53	8.444
412.74	6.408
412.94	8.512
413.14	8.249
413.35	8.722
413.55	8.518
413.75	10.213
413.96	7.711
414.16	8.446
414.36	8.360
414.57	8.700
414.77	8.180
414.97	9.289
415.18	8.125
415.38	8.377
415.58	7.963
415.79	7.857
415.99	7.557
416.19	8.428
416.40	8.594
416.60	8.156
416.80	7.359
417.01	7.720
417.21	7.245
417.41	8.724
417.62	7.989
417.82	8.623
418.02	7.139
418.23	8.395
418.43	8.037
418.63	8.342
418.84	8.402
419.04	8.160
419.24	8.559
419.45	8.917
419.65	8.795
419.85	8.444
420.06	8.595
420.26	8.562
420.46	8.373
420.67	8.879
420.87	8.448
421.07	9.049
421.28	8.458
421.48	9.172
421.68	8.554
421.88	8.371
422.09	8.588
422.29	8.603
422.49	8.026
422.70	9.247
422.90	8.676
423.10	8.744
423.31	8.738
423.51	8.911
423.71	8.304
423.91	9.148
424.12	8.586
424.32	8.713
424.52	8.643
424.73	8.321
424.93	8.385
425.13	8.464
425.33	8.385
425.54	8.776
425.74	8.681
425.94	9.396
426.15	8.796
426.35	8.584
426.55	9.178
426.75	8.799
426.96	8.272
427.16	8.525
427.36	8.773
427.57	9.166
427.77	8.282
427.97	8.789
428.17	8.559
428.38	8.808
428.58	7.307
428.78	9.065
428.98	7.581
429.19	7.842
429.39	7.494
429.59	8.474
429.79	7.245
430.00	7.177
430.20	7.243
430.40	8.258
430.60	7.710
430.81	7.742
431.01	7.396
431.21	8.591
431.41	7.453
431.62	7.457
431.82	7.863
432.02	8.636
432.22	7.705
432.43	7.276
432.63	7.672
432.83	8.205
433.03	7.448
433.24	7.270
433.44	7.609
433.64	8.162
433.84	7.701
434.05	8.059
434.25	7.766
434.45	8.319
434.65	8.590
434.85	8.846
435.06	8.494
435.26	8.220
435.46	7.994
435.66	8.791
435.87	7.881
436.07	8.474
436.27	8.160
436.47	7.927
436.67	7.603
436.88	8.889
437.08	7.803
437.28	8.119
437.48	7.936
437.69	8.672
437.89	8.159
438.09	8.529
438.29	7.493
438.49	8.458
438.70	8.066
438.90	7.657
439.10	8.022
439.30	8.183
439.50	7.332
439.71	8.279
439.91	7.902
440.11	8.551
440.31	8.069
440.51	8.002
440.72	7.798
440.92	8.028
441.12	8.515
441.32	8.701
441.52	8.665
441.72	8.706
441.93	8.311
442.13	8.683
442.33	8.226
442.53	8.894
442.73	7.858
442.94	8.566
443.14	8.323
443.34	8.972
443.54	8.307
443.74	8.940
443.94	8.358
444.15	8.103
444.35	7.655
444.55	8.496
444.75	8.497
444.95	8.615
445.15	8.384
445.36	8.406
445.56	7.714
445.76	8.304
445.96	7.960
446.16	7.710
446.36	7.648
446.57	8.542
446.77	7.728
446.97	8.307
447.17	8.554
447.37	8.563
447.57	8.501
447.77	8.424
447.98	8.322
448.18	8.881
448.38	8.306
448.58	8.682
448.78	8.655
448.98	8.579
449.18	8.053
449.39	8.584
449.59	8.435
449.79	8.912
449.99	8.555
450.19	8.815
450.39	8.220
450.59	8.659
450.79	7.924
451.00	8.703
451.20	9.157
451.40	8.503
451.60	7.529
451.80	9.105
452.00	8.089
452.20	8.505
452.40	8.219
452.61	8.283
452.81	8.282
453.01	8.792
453.21	7.950
453.41	8.260
453.61	8.414
453.81	8.639
454.01	8.585
454.21	8.835
454.42	8.858
454.62	9.015
454.82	8.502
455.02	8.405
455.22	7.885
455.42	8.478
455.62	7.844
455.82	8.551
456.02	7.998
456.23	8.584
456.43	8.487
456.63	8.539
456.83	7.481
457.03	8.355
457.23	8.112
457.43	8.570
457.63	8.009
457.83	8.986
458.03	7.607
458.23	8.511
458.43	8.258
458.64	8.449
458.84	8.493
459.04	8.487
459.24	8.194
459.44	8.374
459.64	8.479
459.84	8.740
460.04	8.268
460.24	8.722
460.44	8.474
460.64	8.647
460.84	8.239
461.04	8.947
461.24	8.780
461.45	9.053
461.65	8.679
461.85	9.176
462.05	8.951
462.25	9.109
462.45	9.350
462.65	9.338
462.85	8.225
463.05	9.268
463.25	8.155
463.45	9.585
463.65	8.513
463.85	9.064
464.05	8.402
464.25	8.740
464.45	9.014
464.65	9.029
464.85	8.534
465.05	8.606
465.26	8.856
465.46	9.453
465.66	9.119
465.86	9.197
466.06	8.875
466.26	9.168
466.46	8.413
466.66	8.846
466.86	8.733
467.06	9.004
467.26	8.570
467.46	9.278
467.66	8.842
467.86	8.671
