SpectraSuite Data File
++++++++++++++++++++++++++++++++++++
Date: Wed Sep 25 02:59:13 EST 2019
User: sgrac
Dark Spectrum Present: Yes
Reference Spectrum Present: Yes
Number of Sampled Component Spectra: 1
Spectrometers: USB4E01596
Integration Time (usec): 100000 (USB4E01596)
Spectra Averaged: 3 (USB4E01596)
Boxcar Smoothing: 0 (USB4E01596)
Correct for Electrical Dark: No (USB4E01596)
Strobe/Lamp Enabled: Yes (USB4E01596)
Correct for Detector Non-linearity: No (USB4E01596)
Correct for Stray Light: No (USB4E01596)
Number of Pixels in Processed Spectrum: 3648
>>>>>Begin Processed Spectral Data<<<<<
178.44	-273.077
178.66	-273.077
178.87	-273.077
179.09	-346.875
179.30	422.581
179.52	556.522
179.74	-407.895
179.95	-201.852
180.17	244.898
180.38	-475.000
180.60	-973.333
180.82	-1844.444
181.03	506.977
181.25	-1641.667
181.46	-226.389
181.68	262.821
181.89	-596.774
182.11	3366.667
182.33	290.385
182.54	-6350.000
182.76	392.157
182.97	460.526
183.19	583.333
183.40	330.435
183.62	510.000
183.84	239.286
184.05	438.462
184.27	-1027.273
184.48	11900.000
184.70	729.630
184.91	390.566
185.13	971.429
185.34	361.017
185.56	232.184
185.78	200.000
185.99	350.000
186.21	202.410
186.42	885.714
186.64	-877.778
186.85	375.610
187.07	-616.000
187.28	220.833
187.50	-265.116
187.72	552.381
187.93	502.703
188.15	942.857
188.36	397.917
188.58	278.333
188.79	460.938
189.01	252.459
189.22	231.183
189.44	218.868
189.65	-339.024
189.87	700.000
190.09	201.923
190.30	210.185
190.52	-255.172
190.73	168.675
190.95	-1271.429
191.16	286.957
191.38	248.077
191.59	212.346
191.81	872.222
192.02	-1533.333
192.24	-1618.182
192.45	148.387
192.67	-3980.000
192.88	154.651
193.10	214.706
193.31	157.377
193.53	-79.032
193.74	409.091
193.96	-2316.667
194.18	1128.571
194.39	355.932
194.61	533.333
194.82	163.636
195.04	169.298
195.25	340.000
195.47	-13900.000
195.68	210.769
195.90	190.000
196.11	690.476
196.33	-165.476
196.54	514.286
196.76	225.806
196.97	132.099
197.19	148.872
197.40	-246.667
197.62	268.750
197.83	788.235
198.05	181.250
198.26	297.917
198.48	1035.294
198.69	-279.487
198.91	232.812
199.12	-8500.000
199.34	468.293
199.55	755.000
199.77	309.524
199.98	342.857
200.20	284.524
200.41	147.727
200.63	241.463
200.84	335.556
201.06	142.405
201.27	-201.754
201.49	-800.000
201.70	296.104
201.91	-2928.571
202.13	-487.500
202.34	-439.394
202.56	689.474
202.77	410.526
202.99	414.894
203.20	215.054
203.42	263.158
203.63	295.775
203.85	-926.667
204.06	590.909
204.28	-2340.000
204.49	713.333
204.71	177.419
204.92	314.706
205.14	1281.250
205.35	337.500
205.56	1114.286
205.78	320.000
205.99	169.512
206.21	384.615
206.42	211.864
206.64	209.375
206.85	237.209
207.07	-407.895
207.28	215.942
207.50	464.865
207.71	562.500
207.93	170.707
208.14	334.000
208.35	459.091
208.57	1020.000
208.78	916.000
209.00	389.362
209.21	288.889
209.43	218.447
209.64	-1300.000
209.86	428.205
210.07	-666.667
210.28	254.348
210.50	610.526
210.71	140.714
210.93	200.000
211.14	253.636
211.36	-1040.000
211.57	269.444
211.78	270.000
212.00	329.787
212.21	491.892
212.43	10300.000
212.64	508.824
212.86	295.833
213.07	442.424
213.29	-1353.333
213.50	529.032
213.71	912.000
213.93	677.778
214.14	180.000
214.36	113.924
214.57	301.639
214.78	358.824
215.00	294.118
215.21	1130.769
215.43	184.848
215.64	467.442
215.86	384.848
216.07	286.667
216.28	421.739
216.50	173.148
216.71	270.690
216.93	447.368
217.14	194.595
217.35	411.538
217.57	104.839
217.78	389.474
218.00	224.419
218.21	510.000
218.42	2766.667
218.64	144.538
218.85	540.000
219.07	340.984
219.28	198.246
219.49	372.727
219.71	170.270
219.92	865.000
220.14	743.750
220.35	251.515
220.56	147.742
220.78	3400.000
220.99	236.585
221.21	135.593
221.42	209.756
221.63	243.333
221.85	280.435
222.06	108.547
222.28	226.316
222.49	315.000
222.70	173.394
222.92	271.910
223.13	219.318
223.34	148.031
223.56	201.449
223.77	230.159
223.99	603.846
224.20	125.175
224.41	161.475
224.63	113.934
224.84	156.338
225.05	214.286
225.27	279.221
225.48	120.755
225.69	91.071
225.91	409.615
226.12	133.582
226.34	99.310
226.55	94.783
226.76	102.286
226.98	85.169
227.19	54.023
227.40	64.414
227.62	73.684
227.83	51.601
228.04	69.966
228.26	55.138
228.47	38.875
228.69	24.561
228.90	28.825
229.11	15.534
229.33	26.128
229.54	16.874
229.75	19.654
229.97	25.254
230.18	24.359
230.39	10.202
230.61	20.985
230.82	15.070
231.03	16.687
231.25	25.789
231.46	8.627
231.67	28.137
231.89	16.407
232.10	16.733
232.31	18.227
232.53	23.589
232.74	36.246
232.95	31.423
233.17	28.932
233.38	34.586
233.59	37.639
233.81	22.091
234.02	35.603
234.23	27.953
234.45	23.543
234.66	24.277
234.87	26.850
235.09	26.935
235.30	36.620
235.51	31.171
235.73	16.145
235.94	22.914
236.15	21.277
236.36	13.277
236.58	17.479
236.79	25.312
237.00	28.906
237.22	27.644
237.43	19.327
237.64	23.220
237.86	29.205
238.07	21.992
238.28	30.856
238.50	25.736
238.71	25.000
238.92	26.667
239.13	31.211
239.35	35.910
239.56	17.689
239.77	33.504
239.99	17.474
240.20	22.594
240.41	17.528
240.63	16.933
240.84	31.114
241.05	17.771
241.26	17.641
241.48	17.818
241.69	10.501
241.90	8.222
242.12	10.914
242.33	11.295
242.54	4.795
242.75	10.393
242.97	10.703
243.18	6.212
243.39	7.719
243.61	9.324
243.82	12.864
244.03	7.543
244.24	7.346
244.46	8.698
244.67	10.154
244.88	10.292
245.09	8.836
245.31	12.353
245.52	8.900
245.73	11.105
245.95	18.603
246.16	9.323
246.37	11.390
246.58	11.408
246.80	10.543
247.01	5.306
247.22	5.673
247.43	6.586
247.65	7.419
247.86	5.896
248.07	5.625
248.28	5.315
248.50	5.655
248.71	3.831
248.92	4.363
249.13	4.920
249.35	4.696
249.56	6.523
249.77	5.621
249.98	6.566
250.20	7.062
250.41	4.477
250.62	7.974
250.83	9.867
251.05	9.027
251.26	9.662
251.47	11.696
251.68	10.893
251.90	8.405
252.11	13.337
252.32	10.299
252.53	12.816
252.75	9.214
252.96	5.241
253.17	11.805
253.38	9.071
253.59	7.037
253.81	8.429
254.02	6.543
254.23	9.693
254.44	8.311
254.66	10.923
254.87	14.673
255.08	3.676
255.29	10.197
255.50	15.265
255.72	9.850
255.93	7.181
256.14	11.260
256.35	10.401
256.57	13.115
256.78	10.097
256.99	16.296
257.20	13.309
257.41	9.748
257.63	11.890
257.84	9.182
258.05	16.265
258.26	7.207
258.47	10.481
258.69	6.490
258.90	8.532
259.11	11.383
259.32	8.035
259.53	6.707
259.75	6.304
259.96	5.206
260.17	3.284
260.38	5.738
260.59	3.465
260.81	3.520
261.02	5.417
261.23	4.616
261.44	6.354
261.65	5.797
261.87	2.272
262.08	3.484
262.29	6.959
262.50	3.695
262.71	3.946
262.92	5.136
263.14	5.732
263.35	4.653
263.56	6.499
263.77	7.167
263.98	5.936
264.20	4.990
264.41	6.292
264.62	7.702
264.83	8.513
265.04	9.124
265.25	6.941
265.47	10.886
265.68	7.032
265.89	7.040
266.10	9.250
266.31	6.345
266.52	9.229
266.74	8.651
266.95	8.070
267.16	5.560
267.37	9.104
267.58	4.151
267.79	7.669
268.01	5.359
268.22	4.588
268.43	7.999
268.64	5.794
268.85	4.203
269.06	5.211
269.27	8.022
269.49	5.894
269.70	5.255
269.91	4.804
270.12	6.351
270.33	5.520
270.54	4.686
270.75	4.150
270.97	4.919
271.18	4.472
271.39	5.149
271.60	8.479
271.81	2.604
272.02	4.602
272.23	6.838
272.45	6.897
272.66	4.707
272.87	3.919
273.08	4.590
273.29	5.251
273.50	4.045
273.71	4.029
273.92	4.763
274.14	4.654
274.35	4.985
274.56	4.445
274.77	4.936
274.98	4.733
275.19	4.807
275.40	4.424
275.61	4.691
275.83	7.235
276.04	5.438
276.25	5.921
276.46	6.546
276.67	7.561
276.88	4.741
277.09	5.395
277.30	5.211
277.51	6.065
277.73	6.724
277.94	4.137
278.15	6.315
278.36	7.574
278.57	7.591
278.78	3.875
278.99	5.331
279.20	7.002
279.41	8.072
279.62	5.805
279.84	5.783
280.05	6.283
280.26	3.369
280.47	5.566
280.68	5.789
280.89	5.172
281.10	4.857
281.31	5.220
281.52	5.766
281.73	3.717
281.94	4.034
282.16	5.936
282.37	3.359
282.58	3.315
282.79	5.990
283.00	5.947
283.21	4.331
283.42	4.589
283.63	3.926
283.84	4.622
284.05	1.339
284.26	4.940
284.47	3.467
284.68	5.313
284.89	4.870
285.11	4.620
285.32	4.129
285.53	3.799
285.74	5.244
285.95	5.013
286.16	3.881
286.37	4.916
286.58	4.905
286.79	2.496
287.00	3.427
287.21	5.353
287.42	4.068
287.63	3.126
287.84	3.459
288.05	3.768
288.26	4.356
288.48	4.017
288.69	5.403
288.90	4.424
289.11	3.549
289.32	3.993
289.53	2.964
289.74	2.811
289.95	3.269
290.16	3.124
290.37	3.700
290.58	4.690
290.79	4.815
291.00	4.623
291.21	2.849
291.42	4.975
291.63	2.038
291.84	3.260
292.05	4.358
292.26	3.969
292.47	4.470
292.68	4.226
292.89	4.854
293.10	4.407
293.31	4.355
293.52	4.758
293.73	3.656
293.94	6.170
294.15	2.887
294.36	5.032
294.57	4.241
294.79	3.819
295.00	2.744
295.21	5.209
295.42	4.621
295.63	4.525
295.84	3.638
296.05	3.756
296.26	3.254
296.47	2.265
296.68	4.318
296.89	4.516
297.10	3.577
297.31	3.259
297.52	3.922
297.73	2.156
297.94	1.829
298.15	2.804
298.36	3.582
298.57	2.410
298.78	2.525
298.99	2.649
299.20	3.597
299.41	3.888
299.62	2.682
299.83	1.688
300.04	3.874
300.25	3.664
300.46	3.919
300.67	3.113
300.88	4.226
301.09	3.658
301.30	4.075
301.50	4.270
301.71	3.817
301.92	3.829
302.13	3.829
302.34	4.312
302.55	3.998
302.76	3.493
302.97	2.992
303.18	4.838
303.39	2.941
303.60	5.126
303.81	5.577
304.02	3.212
304.23	4.474
304.44	3.385
304.65	4.394
304.86	3.089
305.07	5.108
305.28	5.315
305.49	5.400
305.70	2.860
305.91	1.736
306.12	5.951
306.33	4.207
306.54	4.733
306.75	4.628
306.96	5.462
307.17	3.142
307.38	4.519
307.58	4.479
307.79	3.392
308.00	3.422
308.21	4.944
308.42	3.318
308.63	4.705
308.84	3.589
309.05	2.674
309.26	2.445
309.47	2.915
309.68	3.731
309.89	4.300
310.10	3.159
310.31	2.084
310.52	4.297
310.73	4.525
310.94	3.253
311.14	2.017
311.35	3.865
311.56	3.456
311.77	2.825
311.98	3.508
312.19	2.086
312.40	3.405
312.61	3.576
312.82	3.106
313.03	2.518
313.24	4.002
313.45	3.388
313.66	3.363
313.86	5.157
314.07	2.850
314.28	4.068
314.49	3.642
314.70	3.882
314.91	5.353
315.12	3.401
315.33	2.597
315.54	3.953
315.75	3.046
315.96	4.064
316.16	4.318
316.37	3.600
316.58	2.240
316.79	5.467
317.00	4.952
317.21	5.126
317.42	5.196
317.63	4.549
317.84	3.865
318.05	3.378
318.25	6.092
318.46	4.975
318.67	4.809
318.88	4.125
319.09	5.701
319.30	4.029
319.51	4.277
319.72	4.223
319.93	2.255
320.13	3.328
320.34	4.467
320.55	4.526
320.76	5.884
320.97	4.864
321.18	6.094
321.39	3.914
321.60	4.619
321.80	5.525
322.01	4.539
322.22	5.944
322.43	2.820
322.64	5.866
322.85	3.765
323.06	4.233
323.27	4.444
323.47	5.398
323.68	4.563
323.89	3.671
324.10	4.134
324.31	3.379
324.52	4.320
324.73	2.922
324.93	4.703
325.14	5.015
325.35	4.298
325.56	3.863
325.77	5.565
325.98	3.968
326.19	5.368
326.39	1.952
326.60	4.037
326.81	3.977
327.02	4.047
327.23	3.355
327.44	4.627
327.64	2.918
327.85	3.837
328.06	3.364
328.27	5.514
328.48	2.975
328.69	3.193
328.90	2.943
329.10	4.847
329.31	5.095
329.52	4.101
329.73	4.487
329.94	2.705
330.15	3.994
330.35	3.856
330.56	3.109
330.77	3.913
330.98	4.376
331.19	3.652
331.39	5.186
331.60	2.738
331.81	4.487
332.02	4.146
332.23	4.417
332.44	3.560
332.64	4.966
332.85	4.622
333.06	4.855
333.27	2.317
333.48	4.183
333.68	2.166
333.89	3.012
334.10	4.830
334.31	4.980
334.52	3.342
334.72	4.353
334.93	2.811
335.14	2.591
335.35	4.893
335.56	5.161
335.76	4.608
335.97	4.049
336.18	2.835
336.39	5.275
336.60	3.940
336.80	3.586
337.01	3.657
337.22	3.935
337.43	4.082
337.64	4.356
337.84	5.132
338.05	6.055
338.26	6.073
338.47	5.857
338.68	2.691
338.88	4.559
339.09	4.758
339.30	4.835
339.51	6.571
339.71	6.391
339.92	4.630
340.13	3.352
340.34	4.884
340.55	4.842
340.75	5.753
340.96	4.301
341.17	4.566
341.38	4.898
341.58	5.786
341.79	4.799
342.00	4.934
342.21	6.230
342.41	4.555
342.62	4.823
342.83	5.652
343.04	3.697
343.24	4.204
343.45	7.345
343.66	4.115
343.87	6.308
344.07	4.041
344.28	6.887
344.49	5.568
344.70	7.491
344.90	5.456
345.11	3.792
345.32	4.292
345.53	5.856
345.73	5.294
345.94	7.427
346.15	6.609
346.36	6.257
346.56	6.716
346.77	8.164
346.98	7.004
347.19	7.704
347.39	6.116
347.60	6.922
347.81	8.016
348.02	8.032
348.22	6.226
348.43	6.535
348.64	4.678
348.84	8.182
349.05	7.977
349.26	8.445
349.47	7.240
349.67	6.161
349.88	9.582
350.09	7.661
350.30	8.801
350.50	7.525
350.71	8.508
350.92	10.850
351.12	7.913
351.33	8.197
351.54	7.164
351.74	9.497
351.95	7.727
352.16	8.667
352.37	10.418
352.57	7.772
352.78	7.266
352.99	8.818
353.19	8.729
353.40	10.186
353.61	9.354
353.82	10.166
354.02	9.469
354.23	10.180
354.44	12.184
354.64	8.811
354.85	10.169
355.06	10.385
355.26	8.254
355.47	9.519
355.68	12.281
355.88	11.636
356.09	11.031
356.30	8.871
356.51	11.292
356.71	11.399
356.92	8.313
357.13	12.717
357.33	12.195
357.54	10.117
357.75	8.527
357.95	11.009
358.16	10.213
358.37	13.127
358.57	9.864
358.78	14.540
358.99	11.719
359.19	12.329
359.40	12.172
359.61	10.524
359.81	13.775
360.02	13.827
360.23	9.309
360.43	11.768
360.64	10.620
360.85	10.012
361.05	10.353
361.26	14.283
361.47	11.271
361.67	13.536
361.88	10.002
362.09	12.763
362.29	11.004
362.50	11.493
362.70	10.359
362.91	13.430
363.12	10.875
363.32	12.197
363.53	12.089
363.74	12.137
363.94	10.297
364.15	13.141
364.36	12.090
364.56	11.132
364.77	10.548
364.98	14.058
365.18	11.553
365.39	12.315
365.59	10.515
365.80	10.959
366.01	12.718
366.21	9.639
366.42	10.083
366.63	12.803
366.83	9.901
367.04	8.937
367.24	12.116
367.45	9.825
367.66	8.906
367.86	10.438
368.07	10.457
368.28	10.104
368.48	11.557
368.69	9.898
368.89	10.605
369.10	10.290
369.31	10.758
369.51	11.142
369.72	11.056
369.92	13.110
370.13	8.827
370.34	11.245
370.54	6.909
370.75	12.005
370.95	9.343
371.16	10.119
371.37	9.141
371.57	8.994
371.78	9.560
371.98	11.235
372.19	10.911
372.40	11.331
372.60	11.342
372.81	11.280
373.01	8.854
373.22	10.410
373.43	11.006
373.63	11.537
373.84	9.660
374.04	10.772
374.25	9.610
374.46	11.403
374.66	9.639
374.87	11.024
375.07	8.607
375.28	8.687
375.48	10.550
375.69	11.093
375.90	7.050
376.10	8.605
376.31	8.767
376.51	8.599
376.72	8.569
376.92	9.881
377.13	10.022
377.34	10.580
377.54	8.972
377.75	11.592
377.95	9.462
378.16	11.573
378.36	9.571
378.57	11.224
378.77	10.356
378.98	10.820
379.19	9.319
379.39	9.520
379.60	10.001
379.80	10.794
380.01	10.752
380.21	8.849
380.42	10.091
380.62	10.389
380.83	10.572
381.04	8.606
381.24	10.022
381.45	10.299
381.65	8.000
381.86	10.204
382.06	10.764
382.27	8.435
382.47	8.648
382.68	9.725
382.88	8.433
383.09	7.816
383.29	8.980
383.50	10.687
383.71	7.484
383.91	10.220
384.12	8.944
384.32	10.731
384.53	9.155
384.73	7.644
384.94	8.178
385.14	8.414
385.35	8.815
385.55	9.035
385.76	8.057
385.96	8.935
386.17	9.209
386.37	10.008
386.58	9.625
386.78	10.832
386.99	7.719
387.19	10.135
387.40	8.107
387.60	10.299
387.81	8.778
388.01	8.983
388.22	9.166
388.42	10.916
388.63	10.200
388.83	11.407
389.04	7.923
389.24	9.581
389.45	8.176
389.65	8.511
389.86	7.880
390.06	8.618
390.27	8.733
390.47	8.514
390.68	8.468
390.88	10.138
391.09	9.891
391.29	10.153
391.50	8.690
391.70	9.852
391.91	9.419
392.11	9.786
392.32	9.210
392.52	10.210
392.73	9.424
392.93	9.989
393.14	8.607
393.34	10.114
393.55	9.366
393.75	9.395
393.95	8.596
394.16	10.223
394.36	10.056
394.57	10.626
394.77	9.825
394.98	9.614
395.18	10.252
395.39	9.871
395.59	9.406
395.80	9.192
396.00	8.705
396.21	9.791
396.41	9.267
396.61	10.243
396.82	8.977
397.02	10.314
397.23	9.160
397.43	8.667
397.64	7.216
397.84	10.256
398.05	7.020
398.25	9.873
398.45	8.263
398.66	10.352
398.86	8.970
399.07	10.032
399.27	8.307
399.48	9.603
399.68	8.658
399.89	9.120
400.09	9.706
400.29	8.576
400.50	8.733
400.70	9.094
400.91	8.496
401.11	9.028
401.32	8.138
401.52	8.403
401.72	8.378
401.93	10.442
402.13	8.435
402.34	8.740
402.54	7.670
402.75	10.369
402.95	7.038
403.15	9.364
403.36	7.723
403.56	9.650
403.77	7.483
403.97	8.363
404.17	7.514
404.38	9.499
404.58	8.089
404.79	9.362
404.99	9.076
405.19	7.983
405.40	8.374
405.60	9.385
405.81	8.129
406.01	8.649
406.21	8.401
406.42	8.992
406.62	8.507
406.83	9.080
407.03	9.125
407.23	8.642
407.44	8.388
407.64	8.958
407.85	7.976
408.05	8.466
408.25	7.558
408.46	8.792
408.66	8.585
408.87	8.204
409.07	7.820
409.27	7.481
409.48	7.530
409.68	8.657
409.88	7.459
410.09	8.852
410.29	8.133
410.50	9.599
410.70	7.222
410.90	7.952
411.11	6.949
411.31	8.179
411.51	7.615
411.72	9.061
411.92	7.610
412.12	8.118
412.33	7.744
412.53	8.083
412.74	6.872
412.94	7.964
413.14	7.731
413.35	7.658
413.55	7.695
413.75	8.712
413.96	6.788
414.16	8.009
414.36	7.352
414.57	7.313
414.77	6.450
414.97	8.529
415.18	7.511
415.38	7.898
415.58	8.023
415.79	7.395
415.99	8.148
416.19	8.888
416.40	7.413
416.60	8.248
416.80	7.536
417.01	8.799
417.21	6.595
417.41	8.851
417.62	7.468
417.82	8.421
418.02	7.815
418.23	8.840
418.43	8.290
418.63	8.895
418.84	8.444
419.04	8.394
419.24	8.491
419.45	9.216
419.65	9.271
419.85	9.307
420.06	9.140
420.26	9.399
420.46	9.036
420.67	9.890
420.87	9.122
421.07	9.521
421.28	8.879
421.48	9.654
421.68	9.353
421.88	9.769
422.09	9.235
422.29	9.543
422.49	8.871
422.70	9.743
422.90	9.039
423.10	9.275
423.31	9.333
423.51	9.573
423.71	8.946
423.91	9.323
424.12	9.485
424.32	9.786
424.52	9.504
424.73	9.494
424.93	9.019
425.13	9.222
425.33	8.879
425.54	9.408
425.74	9.353
425.94	9.647
426.15	9.275
426.35	9.326
426.55	9.279
426.75	9.668
426.96	9.074
427.16	9.041
427.36	9.261
427.57	9.388
427.77	8.431
427.97	9.065
428.17	8.566
428.38	8.743
428.58	7.517
428.78	8.818
428.98	7.869
429.19	8.052
429.39	7.308
429.59	8.534
429.79	7.573
430.00	7.378
430.20	6.965
430.40	7.909
430.60	7.466
430.81	8.047
431.01	8.126
431.21	8.476
431.41	7.455
431.62	8.341
431.82	7.342
432.02	8.481
432.22	6.935
432.43	7.488
432.63	7.102
432.83	8.417
433.03	7.898
433.24	7.762
433.44	7.470
433.64	8.685
433.84	8.052
434.05	8.536
434.25	7.917
434.45	8.781
434.65	8.590
434.85	8.834
435.06	8.515
435.26	8.433
435.46	8.686
435.66	8.310
435.87	7.672
436.07	8.543
436.27	7.802
436.47	8.362
436.67	7.553
436.88	8.650
437.08	8.091
437.28	8.218
437.48	7.711
437.69	8.659
437.89	7.422
438.09	8.656
438.29	7.688
438.49	8.697
438.70	8.063
438.90	7.922
439.10	7.748
439.30	8.483
439.50	7.661
439.71	8.704
439.91	7.766
440.11	8.732
440.31	8.663
440.51	8.626
440.72	8.097
440.92	8.724
441.12	8.690
441.32	9.090
441.52	8.727
441.72	8.714
441.93	8.396
442.13	9.470
442.33	8.803
442.53	9.297
442.73	8.242
442.94	8.846
443.14	8.354
443.34	9.274
443.54	8.485
443.74	8.854
443.94	7.966
444.15	8.291
444.35	7.714
444.55	8.598
444.75	8.205
444.95	8.351
445.15	7.974
445.36	8.599
445.56	7.887
445.76	8.625
445.96	7.917
446.16	8.813
446.36	8.299
446.57	9.119
446.77	8.342
446.97	8.726
447.17	8.966
447.37	8.951
447.57	9.045
447.77	8.872
447.98	8.736
448.18	9.138
448.38	8.547
448.58	9.149
448.78	8.941
448.98	8.892
449.18	8.140
449.39	8.772
449.59	8.013
449.79	8.413
449.99	8.656
450.19	8.244
450.39	8.247
450.59	7.953
450.79	7.753
451.00	8.668
451.20	8.222
451.40	8.264
451.60	7.305
451.80	8.277
452.00	7.507
452.20	7.695
452.40	8.212
452.61	7.984
452.81	7.726
453.01	7.795
453.21	7.979
453.41	8.334
453.61	7.721
453.81	8.179
454.01	8.138
454.21	8.389
454.42	8.271
454.62	8.128
454.82	7.483
455.02	8.157
455.22	7.754
455.42	7.795
455.62	7.378
455.82	7.863
456.02	6.676
456.23	8.224
456.43	7.450
456.63	8.022
456.83	6.929
457.03	8.542
457.23	7.052
457.43	7.841
457.63	7.044
457.83	7.857
458.03	6.836
458.23	7.952
458.43	6.775
458.64	7.911
458.84	7.121
459.04	8.273
459.24	7.551
459.44	8.069
459.64	8.165
459.84	8.382
460.04	7.976
460.24	8.572
460.44	8.241
460.64	8.414
460.84	8.081
461.04	8.759
461.24	8.463
461.45	9.033
461.65	8.933
461.85	8.758
462.05	7.992
462.25	8.778
462.45	8.355
462.65	8.328
462.85	7.839
463.05	8.152
463.25	7.252
463.45	8.481
463.65	7.627
463.85	8.106
464.05	7.620
464.25	7.649
464.45	7.586
464.65	7.953
464.85	6.982
465.05	7.921
465.26	7.147
465.46	7.869
465.66	7.500
465.86	7.865
466.06	7.424
466.26	8.115
466.46	7.179
466.66	7.554
466.86	7.361
467.06	7.954
467.26	7.293
467.46	8.175
467.66	7.325
467.86	7.567
468.06	7.407
468.26	7.638
468.46	7.921
468.66	7.701
468.86	7.231
469.06	7.747
469.26	6.651
469.46	7.565
469.66	7.239
469.86	7.828
470.06	7.301
470.26	8.186
470.46	6.897
470.66	8.609
470.86	7.097
471.06	7.316
471.26	6.532
471.46	7.522
471.66	7.331
471.86	7.705
472.06	7.506
472.26	8.161
472.46	8.013
472.66	7.525
472.86	7.017
473.06	7.786
473.26	7.588
473.46	7.910
473.66	7.030
473.86	7.696
474.06	7.017
474.26	7.998
474.46	6.637
474.66	7.894
474.86	7.392
475.06	7.686
475.26	6.974
475.46	7.536
475.66	6.939
475.86	7.710
476.06	7.754
476.26	8.050
476.46	6.890
476.66	7.634
