SpectraSuite Data File
++++++++++++++++++++++++++++++++++++
Date: Wed Sep 18 04:12:19 EST 2019
User: sgrac
Dark Spectrum Present: Yes
Reference Spectrum Present: Yes
Number of Sampled Component Spectra: 1
Spectrometers: USB4E01596
Integration Time (usec): 100000 (USB4E01596)
Spectra Averaged: 3 (USB4E01596)
Boxcar Smoothing: 0 (USB4E01596)
Correct for Electrical Dark: No (USB4E01596)
Strobe/Lamp Enabled: Yes (USB4E01596)
Correct for Detector Non-linearity: No (USB4E01596)
Correct for Stray Light: No (USB4E01596)
Number of Pixels in Processed Spectrum: 3648
>>>>>Begin Processed Spectral Data<<<<<
178.44	-167.742
178.66	-167.742
178.87	-167.742
179.09	-246.000
179.30	261.957
179.52	568.421
179.74	-1116.667
179.95	-1553.333
180.17	632.558
180.38	-706.667
180.60	435.714
180.82	1506.250
181.03	502.326
181.25	-2114.286
181.46	-600.000
181.68	-613.953
181.89	548.980
182.11	720.000
182.33	654.902
182.54	545.614
182.76	1147.826
182.97	2178.571
183.19	291.304
183.40	248.864
183.62	476.923
183.84	451.613
184.05	736.364
184.27	468.852
184.48	3125.000
184.70	641.667
184.91	571.739
185.13	-662.500
185.34	-408.333
185.56	-751.515
185.78	1422.222
185.99	478.689
186.21	726.829
186.42	-2240.000
186.64	351.515
186.85	1912.500
187.07	535.714
187.28	638.095
187.50	-1223.529
187.72	506.000
187.93	392.771
188.15	513.235
188.36	-1623.529
188.58	327.273
188.79	-12200.000
189.01	206.803
189.22	362.338
189.44	883.333
189.65	312.360
189.87	392.105
190.09	351.064
190.30	1016.667
190.52	1587.500
190.73	332.530
190.95	1081.818
191.16	405.970
191.38	-32100.000
191.59	715.217
191.81	518.571
192.02	-738.462
192.24	380.645
192.45	332.222
192.67	366.667
192.88	445.313
193.10	725.000
193.31	467.857
193.53	379.032
193.74	781.818
193.96	474.576
194.18	-1117.391
194.39	576.471
194.61	917.241
194.82	976.923
195.04	386.667
195.25	362.295
195.47	-6125.000
195.68	370.423
195.90	290.110
196.11	635.417
196.33	1652.941
196.54	702.326
196.76	-892.000
196.97	204.000
197.19	1390.000
197.40	269.925
197.62	-560.606
197.83	644.231
198.05	248.993
198.26	-1052.000
198.48	636.111
198.69	269.725
198.91	366.667
199.12	-1966.667
199.34	944.000
199.55	24500.000
199.77	385.526
199.98	4716.667
200.20	758.824
200.41	457.746
200.63	570.370
200.84	1223.810
201.06	651.613
201.27	369.136
201.49	464.062
201.70	521.311
201.91	686.364
202.13	1655.000
202.34	-771.429
202.56	428.333
202.77	-239.535
202.99	442.683
203.20	582.979
203.42	552.857
203.63	249.541
203.85	-703.448
204.06	831.818
204.28	1846.667
204.49	641.860
204.71	205.882
204.92	869.231
205.14	1300.000
205.35	5675.000
205.56	383.099
205.78	391.358
205.99	249.618
206.21	311.111
206.42	565.217
206.64	708.824
206.85	306.667
207.07	600.000
207.28	353.409
207.50	960.870
207.71	720.930
207.93	562.500
208.14	565.116
208.35	403.390
208.57	532.000
208.78	326.596
209.00	273.118
209.21	226.761
209.43	425.000
209.64	888.462
209.86	2100.000
210.07	360.759
210.28	361.446
210.50	314.493
210.71	368.182
210.93	523.636
211.14	787.500
211.36	842.857
211.57	182.500
211.78	1038.462
212.00	654.054
212.21	2144.444
212.43	1815.385
212.64	900.000
212.86	302.727
213.07	507.692
213.29	312.245
213.50	460.000
213.71	285.000
213.93	277.528
214.14	865.625
214.36	609.756
214.57	336.905
214.78	6800.000
215.00	317.073
215.21	571.111
215.43	-5300.000
215.64	470.000
215.86	405.882
216.07	405.479
216.28	576.000
216.50	452.000
216.71	1606.667
216.93	-23300.000
217.14	1315.789
217.35	-350.847
217.57	309.091
217.78	772.414
218.00	304.762
218.21	413.235
218.42	-5600.000
218.64	846.429
218.85	475.000
219.07	376.744
219.28	566.667
219.49	-12750.000
219.71	494.030
219.92	618.421
220.14	-21500.000
220.35	447.945
220.56	510.870
220.78	240.244
220.99	-502.222
221.21	375.904
221.42	173.026
221.63	1600.000
221.85	-713.333
222.06	226.263
222.28	-528.571
222.49	412.281
222.70	302.586
222.92	534.211
223.13	212.329
223.34	2025.000
223.56	252.137
223.77	296.296
223.99	277.778
224.20	208.333
224.41	222.727
224.63	181.818
224.84	229.032
225.05	254.098
225.27	514.545
225.48	397.561
225.69	350.000
225.91	356.923
226.12	304.000
226.34	266.667
226.55	237.736
226.76	178.295
226.98	392.308
227.19	175.714
227.40	199.296
227.62	146.667
227.83	109.524
228.04	144.865
228.26	156.757
228.47	78.846
228.69	66.230
228.90	59.401
229.11	61.517
229.33	46.067
229.54	55.019
229.75	39.856
229.97	32.657
230.18	39.020
230.39	45.889
230.61	27.381
230.82	44.714
231.03	29.173
231.25	50.727
231.46	40.773
231.67	40.532
231.89	41.227
232.10	49.047
232.31	49.245
232.53	69.111
232.74	60.843
232.95	51.287
233.17	54.967
233.38	51.773
233.59	67.329
233.81	62.260
234.02	52.161
234.23	56.250
234.45	59.497
234.66	65.594
234.87	70.112
235.09	71.770
235.30	70.101
235.51	62.907
235.73	56.532
235.94	54.832
236.15	57.143
236.36	50.562
236.58	47.727
236.79	49.813
237.00	59.590
237.22	39.227
237.43	54.088
237.64	42.137
237.86	51.626
238.07	68.151
238.28	48.069
238.50	48.057
238.71	47.692
238.92	48.975
239.13	49.573
239.35	60.668
239.56	60.722
239.77	71.680
239.99	46.414
240.20	67.917
240.41	40.530
240.63	48.162
240.84	63.036
241.05	35.852
241.26	43.185
241.48	42.529
241.69	34.731
241.90	25.619
242.12	30.669
242.33	23.343
242.54	20.077
242.75	19.576
242.97	26.606
243.18	15.603
243.39	16.743
243.61	16.271
243.82	19.988
244.03	18.321
244.24	19.530
244.46	19.314
244.67	20.196
244.88	16.137
245.09	17.580
245.31	20.167
245.52	21.586
245.73	23.529
245.95	39.548
246.16	27.399
246.37	23.958
246.58	26.080
246.80	28.133
247.01	22.835
247.22	17.177
247.43	11.655
247.65	16.902
247.86	13.794
248.07	10.010
248.28	10.984
248.50	12.142
248.71	10.627
248.92	8.169
249.13	10.477
249.35	8.727
249.56	12.214
249.77	11.505
249.98	11.808
250.20	14.639
250.41	16.058
250.62	18.062
250.83	18.592
251.05	22.872
251.26	20.856
251.47	18.390
251.68	24.812
251.90	25.756
252.11	27.013
252.32	27.195
252.53	22.859
252.75	13.013
252.96	23.537
253.17	17.679
253.38	18.602
253.59	14.254
253.81	16.014
254.02	15.200
254.23	17.271
254.44	18.968
254.66	18.468
254.87	20.663
255.08	16.404
255.29	16.884
255.50	26.401
255.72	19.981
255.93	28.325
256.14	33.821
256.35	21.480
256.57	27.329
256.78	30.909
256.99	21.313
257.20	20.773
257.41	20.856
257.63	23.623
257.84	25.788
258.05	14.262
258.26	16.403
258.47	19.811
258.69	21.840
258.90	18.006
259.11	14.127
259.32	12.648
259.53	16.825
259.75	10.742
259.96	13.370
260.17	10.966
260.38	10.479
260.59	10.094
260.81	9.831
261.02	9.380
261.23	9.787
261.44	8.194
261.65	6.952
261.87	8.399
262.08	10.594
262.29	11.169
262.50	9.522
262.71	7.216
262.92	10.621
263.14	11.193
263.35	10.506
263.56	9.603
263.77	10.912
263.98	12.840
264.20	14.344
264.41	16.508
264.62	9.319
264.83	8.571
265.04	18.794
265.25	11.197
265.47	19.786
265.68	20.940
265.89	16.279
266.10	16.495
266.31	18.187
266.52	15.988
266.74	13.926
266.95	19.296
267.16	16.063
267.37	12.271
267.58	10.539
267.79	13.574
268.01	12.419
268.22	9.159
268.43	11.018
268.64	13.905
268.85	13.194
269.06	10.065
269.27	12.651
269.49	9.969
269.70	12.696
269.91	11.166
270.12	15.688
270.33	14.554
270.54	14.335
270.75	10.591
270.97	11.770
271.18	11.022
271.39	12.239
271.60	13.204
271.81	10.860
272.02	13.100
272.23	12.700
272.45	8.765
272.66	9.691
272.87	9.990
273.08	7.806
273.29	13.178
273.50	10.713
273.71	8.518
273.92	8.469
274.14	10.028
274.35	7.973
274.56	11.264
274.77	10.625
274.98	13.227
275.19	10.831
275.40	12.443
275.61	11.865
275.83	10.741
276.04	8.950
276.25	13.223
276.46	12.767
276.67	13.478
276.88	12.141
277.09	10.113
277.30	14.269
277.51	12.580
277.73	11.929
277.94	13.383
278.15	13.571
278.36	14.219
278.57	11.910
278.78	11.103
278.99	9.821
279.20	13.856
279.41	15.583
279.62	10.259
279.84	14.715
280.05	10.349
280.26	12.077
280.47	11.508
280.68	9.166
280.89	9.044
281.10	9.646
281.31	13.986
281.52	10.443
281.73	8.021
281.94	8.277
282.16	11.810
282.37	13.609
282.58	11.086
282.79	9.908
283.00	12.322
283.21	8.990
283.42	12.050
283.63	10.884
283.84	8.429
284.05	9.080
284.26	8.803
284.47	11.284
284.68	7.872
284.89	8.487
285.11	8.430
285.32	10.647
285.53	9.544
285.74	10.662
285.95	8.777
286.16	9.093
286.37	6.856
286.58	8.043
286.79	5.796
287.00	7.721
287.21	7.928
287.42	7.550
287.63	7.683
287.84	8.982
288.05	8.042
288.26	8.295
288.48	9.291
288.69	8.836
288.90	11.177
289.11	9.530
289.32	9.843
289.53	8.505
289.74	8.584
289.95	9.367
290.16	9.111
290.37	9.123
290.58	6.284
290.79	7.212
291.00	8.260
291.21	7.894
291.42	7.539
291.63	8.265
291.84	9.635
292.05	6.222
292.26	7.503
292.47	8.853
292.68	4.976
292.89	7.244
293.10	7.125
293.31	8.640
293.52	6.176
293.73	4.406
293.94	9.896
294.15	8.116
294.36	8.745
294.57	9.587
294.79	8.239
295.00	6.520
295.21	8.801
295.42	10.647
295.63	10.885
295.84	6.470
296.05	7.696
296.26	8.247
296.47	8.204
296.68	6.743
296.89	7.754
297.10	7.828
297.31	7.135
297.52	6.220
297.73	7.835
297.94	6.002
298.15	5.864
298.36	5.361
298.57	6.132
298.78	7.963
298.99	7.183
299.20	6.011
299.41	6.391
299.62	5.651
299.83	5.949
300.04	7.907
300.25	8.047
300.46	9.684
300.67	9.466
300.88	8.315
301.09	7.534
301.30	8.098
301.50	6.986
301.71	10.967
301.92	9.187
302.13	7.065
302.34	7.101
302.55	8.457
302.76	7.328
302.97	8.262
303.18	5.679
303.39	8.829
303.60	7.668
303.81	9.406
304.02	6.524
304.23	9.022
304.44	8.507
304.65	6.645
304.86	8.790
305.07	6.167
305.28	8.729
305.49	9.900
305.70	9.864
305.91	8.004
306.12	6.260
306.33	6.361
306.54	9.237
306.75	8.949
306.96	11.433
307.17	8.263
307.38	8.925
307.58	6.682
307.79	8.781
308.00	9.898
308.21	7.250
308.42	5.768
308.63	7.817
308.84	8.891
309.05	8.254
309.26	7.527
309.47	10.304
309.68	8.464
309.89	8.670
310.10	7.299
310.31	8.250
310.52	7.357
310.73	9.907
310.94	5.268
311.14	7.226
311.35	7.204
311.56	7.998
311.77	6.296
311.98	6.246
312.19	6.878
312.40	7.599
312.61	4.925
312.82	6.344
313.03	6.862
313.24	6.164
313.45	6.797
313.66	7.493
313.86	8.067
314.07	5.995
314.28	7.297
314.49	6.563
314.70	7.063
314.91	8.988
315.12	9.102
315.33	10.018
315.54	9.257
315.75	7.626
315.96	8.616
316.16	8.714
316.37	9.386
316.58	8.113
316.79	8.911
317.00	8.641
317.21	8.770
317.42	9.795
317.63	8.867
317.84	8.357
318.05	6.614
318.25	9.304
318.46	8.318
318.67	8.499
318.88	9.992
319.09	8.122
319.30	10.410
319.51	9.228
319.72	9.354
319.93	6.772
320.13	9.288
320.34	7.964
320.55	5.461
320.76	8.614
320.97	9.096
321.18	12.977
321.39	6.873
321.60	9.093
321.80	12.532
322.01	11.020
322.22	10.796
322.43	9.288
322.64	9.729
322.85	8.309
323.06	6.979
323.27	10.780
323.47	11.158
323.68	11.765
323.89	7.690
324.10	8.511
324.31	8.749
324.52	8.948
324.73	8.466
324.93	7.338
325.14	8.290
325.35	9.382
325.56	7.708
325.77	10.408
325.98	7.049
326.19	9.015
326.39	6.764
326.60	7.669
326.81	6.425
327.02	6.725
327.23	7.091
327.44	10.996
327.64	6.428
327.85	7.387
328.06	8.282
328.27	10.711
328.48	8.927
328.69	4.897
328.90	7.969
329.10	7.908
329.31	7.976
329.52	9.324
329.73	10.728
329.94	9.024
330.15	9.845
330.35	11.644
330.56	10.489
330.77	9.680
330.98	10.587
331.19	8.214
331.39	8.651
331.60	10.195
331.81	6.098
332.02	9.688
332.23	9.002
332.44	7.527
332.64	9.823
332.85	10.571
333.06	10.963
333.27	7.599
333.48	9.738
333.68	9.060
333.89	10.189
334.10	9.206
334.31	11.148
334.52	9.264
334.72	10.097
334.93	7.887
335.14	7.274
335.35	9.502
335.56	9.583
335.76	7.342
335.97	10.009
336.18	7.141
336.39	11.441
336.60	9.887
336.80	9.118
337.01	8.164
337.22	8.416
337.43	10.978
337.64	10.580
337.84	8.473
338.05	9.177
338.26	10.773
338.47	12.453
338.68	7.920
338.88	11.506
339.09	9.774
339.30	10.964
339.51	9.146
339.71	12.378
339.92	8.404
340.13	11.418
340.34	8.234
340.55	6.981
340.75	9.304
340.96	9.229
341.17	10.680
341.38	9.462
341.58	10.504
341.79	11.026
342.00	8.479
342.21	9.865
342.41	10.149
342.62	10.649
342.83	10.525
343.04	7.497
343.24	10.508
343.45	11.622
343.66	9.671
343.87	9.626
344.07	9.413
344.28	10.877
344.49	12.271
344.70	13.868
344.90	9.006
345.11	8.021
345.32	11.294
345.53	10.215
345.73	11.409
345.94	11.946
346.15	12.125
346.36	10.073
346.56	10.835
346.77	13.828
346.98	12.413
347.19	11.743
347.39	12.294
347.60	11.667
347.81	14.182
348.02	13.019
348.22	9.071
348.43	11.466
348.64	10.513
348.84	12.249
349.05	12.108
349.26	14.286
349.47	9.893
349.67	10.474
349.88	13.909
350.09	12.154
350.30	17.002
350.50	13.074
350.71	14.400
350.92	13.057
351.12	13.811
351.33	12.679
351.54	14.098
351.74	14.428
351.95	10.873
352.16	14.921
352.37	14.560
352.57	14.123
352.78	14.030
352.99	13.701
353.19	12.671
353.40	15.230
353.61	16.936
353.82	15.198
354.02	16.173
354.23	15.735
354.44	16.712
354.64	14.299
354.85	17.172
355.06	14.369
355.26	13.035
355.47	15.216
355.68	18.107
355.88	17.050
356.09	13.616
356.30	12.822
356.51	15.590
356.71	14.981
356.92	12.739
357.13	16.689
357.33	18.573
357.54	15.931
357.75	11.336
357.95	15.878
358.16	13.917
358.37	18.559
358.57	12.925
358.78	19.524
358.99	16.093
359.19	13.802
359.40	17.462
359.61	17.350
359.81	18.476
360.02	20.588
360.23	14.808
360.43	14.162
360.64	16.159
360.85	14.827
361.05	14.502
361.26	18.415
361.47	14.763
361.67	17.858
361.88	13.701
362.09	15.965
362.29	14.436
362.50	15.178
362.70	13.042
362.91	17.182
363.12	14.612
363.32	14.998
363.53	15.939
363.74	18.076
363.94	13.934
364.15	18.990
364.36	15.976
364.56	15.812
364.77	17.789
364.98	19.355
365.18	15.714
365.39	17.403
365.59	14.530
365.80	16.765
366.01	14.939
366.21	16.009
366.42	14.773
366.63	17.338
366.83	15.771
367.04	12.841
367.24	17.284
367.45	13.993
367.66	13.652
367.86	16.461
368.07	13.528
368.28	15.860
368.48	13.628
368.69	13.481
368.89	15.456
369.10	16.401
369.31	15.902
369.51	16.105
369.72	17.288
369.92	18.658
370.13	11.688
370.34	15.750
370.54	10.464
370.75	14.877
370.95	12.432
371.16	16.407
371.37	13.029
371.57	14.517
371.78	13.753
371.98	15.199
372.19	14.845
372.40	15.306
372.60	15.785
372.81	15.144
373.01	13.138
373.22	13.138
373.43	14.166
373.63	15.766
373.84	14.507
374.04	15.102
374.25	14.040
374.46	15.463
374.66	13.563
374.87	15.824
375.07	11.788
375.28	12.622
375.48	13.661
375.69	15.230
375.90	10.611
376.10	10.876
376.31	12.791
376.51	11.803
376.72	12.163
376.92	11.715
377.13	14.735
377.34	13.308
377.54	13.064
377.75	14.930
377.95	12.097
378.16	13.235
378.36	13.520
378.57	15.253
378.77	12.359
378.98	13.948
379.19	11.472
379.39	11.417
379.60	12.112
379.80	12.478
380.01	13.528
380.21	13.430
380.42	12.826
380.62	12.356
380.83	12.585
381.04	12.200
381.24	13.307
381.45	12.718
381.65	11.710
381.86	12.243
382.06	13.736
382.27	11.043
382.47	11.201
382.68	13.400
382.88	11.095
383.09	10.611
383.29	13.072
383.50	12.105
383.71	11.374
383.91	12.186
384.12	11.099
384.32	11.879
384.53	10.964
384.73	10.195
384.94	10.720
385.14	11.615
385.35	10.131
385.55	10.884
385.76	10.470
385.96	11.140
386.17	12.290
386.37	12.081
386.58	12.255
386.78	13.740
386.99	10.356
387.19	12.422
387.40	9.579
387.60	13.200
387.81	11.743
388.01	10.805
388.22	12.492
388.42	12.913
388.63	12.650
388.83	13.528
389.04	10.483
389.24	12.062
389.45	11.456
389.65	10.244
389.86	10.381
390.06	10.088
390.27	10.076
390.47	10.769
390.68	10.525
390.88	12.106
391.09	11.595
391.29	12.300
391.50	11.039
391.70	11.164
391.91	10.572
392.11	10.774
392.32	11.197
392.52	11.347
392.73	10.394
392.93	10.530
393.14	10.343
393.34	11.134
393.55	11.771
393.75	10.701
393.95	10.948
394.16	11.577
394.36	12.304
394.57	11.489
394.77	11.248
394.98	9.659
395.18	11.328
395.39	10.738
395.59	10.049
395.80	10.754
396.00	10.954
396.21	12.248
396.41	9.475
396.61	11.653
396.82	11.465
397.02	12.821
397.23	11.756
397.43	11.188
397.64	9.276
397.84	12.688
398.05	9.486
398.25	11.767
398.45	10.461
398.66	11.211
398.86	10.643
399.07	11.510
399.27	9.412
399.48	11.442
399.68	10.164
399.89	10.042
400.09	11.313
400.29	10.250
400.50	10.329
400.70	10.665
400.91	9.671
401.11	9.444
401.32	11.437
401.52	9.011
401.72	9.720
401.93	12.065
402.13	10.989
402.34	10.176
402.54	7.852
402.75	11.948
402.95	8.502
403.15	11.417
403.36	9.975
403.56	10.554
403.77	8.658
403.97	10.500
404.17	8.994
404.38	10.687
404.58	9.223
404.79	10.545
404.99	11.130
405.19	9.171
405.40	9.468
405.60	10.085
405.81	9.197
406.01	10.047
406.21	8.923
406.42	9.380
406.62	10.068
406.83	10.106
407.03	10.499
407.23	8.845
407.44	9.313
407.64	10.198
407.85	9.827
408.05	9.735
408.25	8.958
408.46	11.213
408.66	9.747
408.87	9.542
409.07	10.192
409.27	7.746
409.48	8.681
409.68	10.159
409.88	8.404
410.09	10.367
410.29	9.946
410.50	11.065
410.70	8.482
410.90	9.417
411.11	8.763
411.31	10.045
411.51	9.648
411.72	9.857
411.92	9.092
412.12	9.336
412.33	8.890
412.53	9.044
412.74	7.446
412.94	8.906
413.14	9.134
413.35	9.111
413.55	8.497
413.75	9.788
413.96	8.270
414.16	9.564
414.36	9.543
414.57	9.467
414.77	8.375
414.97	9.684
415.18	8.438
415.38	9.025
415.58	8.823
415.79	7.941
415.99	8.040
416.19	9.532
416.40	8.599
416.60	8.984
416.80	8.980
417.01	8.989
417.21	7.734
417.41	9.731
417.62	9.106
417.82	8.625
418.02	7.706
418.23	8.894
418.43	8.842
418.63	9.791
418.84	8.785
419.04	8.089
419.24	9.724
419.45	9.313
419.65	9.756
419.85	9.781
420.06	9.087
420.26	9.911
420.46	9.313
420.67	9.498
420.87	9.499
421.07	9.984
421.28	8.793
421.48	9.344
421.68	9.499
421.88	9.934
422.09	9.947
422.29	9.287
422.49	8.924
422.70	9.405
422.90	9.432
423.10	9.297
423.31	9.469
423.51	9.837
423.71	8.789
423.91	9.982
424.12	9.331
424.32	9.461
424.52	9.096
424.73	9.407
424.93	9.045
425.13	9.202
425.33	8.824
425.54	9.337
425.74	9.348
425.94	10.315
426.15	9.105
426.35	9.126
426.55	9.727
426.75	9.588
426.96	9.023
427.16	9.096
427.36	9.249
427.57	10.214
427.77	9.400
427.97	9.799
428.17	9.172
428.38	9.397
428.58	7.149
428.78	9.949
428.98	7.826
429.19	8.799
429.39	7.733
429.59	8.499
429.79	7.745
430.00	7.542
430.20	7.491
430.40	8.763
430.60	8.064
430.81	8.143
431.01	7.779
431.21	8.397
431.41	7.242
431.62	8.645
431.82	8.181
432.02	9.323
432.22	7.770
432.43	7.501
432.63	7.642
432.83	8.375
433.03	8.401
433.24	7.314
433.44	7.680
433.64	8.656
433.84	7.989
434.05	8.703
434.25	7.806
434.45	9.110
434.65	8.839
434.85	8.931
435.06	9.036
435.26	8.780
435.46	8.555
435.66	9.189
435.87	7.987
436.07	8.540
436.27	8.821
436.47	8.318
436.67	8.295
436.88	8.971
437.08	8.401
437.28	8.571
437.48	8.283
437.69	9.116
437.89	8.425
438.09	8.876
438.29	7.551
438.49	8.731
438.70	8.091
438.90	8.094
439.10	7.853
439.30	8.689
439.50	8.285
439.71	8.714
439.91	7.987
440.11	9.171
440.31	7.950
440.51	8.452
440.72	7.809
440.92	8.726
441.12	8.303
441.32	9.327
441.52	8.520
441.72	8.893
441.93	8.214
442.13	9.008
442.33	8.396
442.53	8.849
442.73	7.905
442.94	8.442
443.14	7.897
443.34	9.384
443.54	8.492
443.74	9.351
443.94	8.406
444.15	8.520
444.35	8.219
444.55	8.353
444.75	8.458
444.95	8.788
445.15	8.508
445.36	9.085
445.56	7.399
445.76	8.369
445.96	8.209
446.16	8.720
446.36	7.944
446.57	8.550
446.77	7.778
446.97	8.857
447.17	8.796
447.37	8.445
447.57	8.853
447.77	8.695
447.98	7.869
448.18	8.501
448.38	8.355
448.58	8.783
448.78	8.830
448.98	8.368
449.18	8.087
449.39	8.871
449.59	8.459
449.79	8.813
449.99	7.989
450.19	8.258
450.39	8.621
450.59	8.761
450.79	7.917
451.00	8.437
451.20	9.058
451.40	8.596
451.60	7.571
451.80	8.230
452.00	8.078
452.20	8.581
452.40	7.915
452.61	7.944
452.81	7.799
453.01	7.947
453.21	7.745
453.41	8.105
453.61	8.112
453.81	8.380
454.01	7.585
454.21	7.985
454.42	7.969
454.62	8.169
454.82	7.851
455.02	7.990
455.22	7.549
455.42	7.845
455.62	7.022
455.82	7.789
456.02	7.369
456.23	8.158
456.43	7.963
456.63	7.665
456.83	6.614
457.03	8.448
457.23	7.347
457.43	8.509
457.63	7.967
457.83	8.689
458.03	7.738
458.23	8.145
458.43	7.189
458.64	8.172
458.84	8.181
459.04	8.376
459.24	7.983
459.44	8.197
459.64	7.993
459.84	8.100
460.04	8.110
460.24	8.033
460.44	7.996
460.64	8.333
460.84	7.925
461.04	8.323
461.24	8.215
461.45	8.784
461.65	8.431
461.85	8.554
462.05	8.204
462.25	8.643
462.45	8.554
462.65	8.680
462.85	7.697
463.05	8.506
463.25	7.199
463.45	8.310
463.65	8.327
463.85	7.718
464.05	7.844
464.25	7.617
464.45	8.448
464.65	7.815
464.85	7.007
465.05	7.668
465.26	7.372
465.46	8.008
465.66	7.740
465.86	7.965
466.06	7.581
466.26	7.767
466.46	6.901
466.66	7.724
466.86	7.943
467.06	7.990
467.26	7.468
467.46	8.008
467.66	7.355
467.86	7.410
468.06	7.790
468.26	7.484
468.46	7.324
468.66	8.309
468.86	7.279
469.06	8.622
469.26	7.107
469.46	7.748
469.66	7.076
469.86	8.085
470.06	7.089
470.26	8.402
470.46	6.875
470.66	8.287
470.86	7.146
