SpectraSuite Data File
++++++++++++++++++++++++++++++++++++
Date: Thu Sep 19 03:30:44 EST 2019
User: sgrac
Dark Spectrum Present: Yes
Reference Spectrum Present: Yes
Number of Sampled Component Spectra: 1
Spectrometers: USB4E01596
Integration Time (usec): 100000 (USB4E01596)
Spectra Averaged: 1 (USB4E01596)
Boxcar Smoothing: 0 (USB4E01596)
Correct for Electrical Dark: No (USB4E01596)
Strobe/Lamp Enabled: Yes (USB4E01596)
Correct for Detector Non-linearity: No (USB4E01596)
Correct for Stray Light: No (USB4E01596)
Number of Pixels in Processed Spectrum: 3648
>>>>>Begin Processed Spectral Data<<<<<
178.44	892.857
178.66	892.857
178.87	892.857
179.09	-1045.455
179.30	135.714
179.52	1900.000
179.74	-711.111
179.95	738.095
180.17	1527.273
180.38	334.328
180.60	0.000
180.82	570.968
181.03	301.852
181.25	2500.000
181.46	1238.462
181.68	-246.512
181.89	1250.000
182.11	750.000
182.33	740.741
182.54	1583.333
182.76	650.000
182.97	-528.571
183.19	369.048
183.40	354.545
183.62	657.143
183.84	1887.500
184.05	1106.667
184.27	-9150.000
184.48	249.206
184.70	8500.000
184.91	626.923
185.13	315.493
185.34	-201.923
185.56	648.148
185.78	457.692
185.99	-3625.000
186.21	-1400.000
186.42	-340.000
186.64	1053.333
186.85	-7350.000
187.07	595.455
187.28	1100.000
187.50	800.000
187.72	372.222
187.93	1161.111
188.15	915.789
188.36	1170.588
188.58	523.077
188.79	2100.000
189.01	812.500
189.22	3060.000
189.44	915.000
189.65	-7533.333
189.87	4350.000
190.09	1211.765
190.30	2271.429
190.52	1200.000
190.73	-423.077
190.95	325.000
191.16	633.333
191.38	508.333
191.59	-1245.455
191.81	763.636
192.02	1153.333
192.24	665.385
192.45	1875.000
192.67	2800.000
192.88	-514.815
193.10	-20900.000
193.31	500.000
193.53	-852.381
193.74	-3775.000
193.96	2400.000
194.18	800.000
194.39	460.976
194.61	852.632
194.82	1663.636
195.04	600.000
195.25	4666.667
195.47	378.947
195.68	894.118
195.90	402.326
196.11	696.154
196.33	-1666.667
196.54	-926.316
196.76	754.545
196.97	1711.111
197.19	-16200.000
197.40	1500.000
197.62	2900.000
197.83	1069.231
198.05	632.143
198.26	455.000
198.48	455.882
198.69	-1766.667
198.91	850.000
199.12	531.429
199.34	-1957.143
199.55	263.158
199.77	391.304
199.98	-1454.545
200.20	740.000
200.41	7200.000
200.63	542.857
200.84	714.286
201.06	-1269.231
201.27	-2320.000
201.49	1241.667
201.70	837.500
201.91	-9250.000
202.13	1000.000
202.34	336.957
202.56	6900.000
202.77	706.250
202.99	414.000
203.20	557.576
203.42	-2542.857
203.63	3383.333
203.85	580.556
204.06	569.565
204.28	1687.500
204.49	-1590.000
204.71	507.317
204.92	433.333
205.14	393.333
205.35	280.000
205.56	2533.333
205.78	904.545
205.99	-1470.000
206.21	726.087
206.42	277.966
206.64	-2500.000
206.85	719.048
207.07	784.211
207.28	-3100.000
207.50	303.704
207.71	987.500
207.93	322.917
208.14	559.259
208.35	888.235
208.57	-628.000
208.78	-336.585
209.00	325.581
209.21	473.810
209.43	616.000
209.64	11100.000
209.86	661.905
210.07	503.448
210.28	-1230.769
210.50	1188.235
210.71	625.000
210.93	603.125
211.14	277.143
211.36	371.739
211.57	720.000
211.78	487.179
212.00	1066.667
212.21	1088.235
212.43	1146.667
212.64	570.000
212.86	242.308
213.07	568.966
213.29	670.000
213.50	570.968
213.71	470.000
213.93	2571.429
214.14	1070.588
214.36	1837.500
214.57	311.268
214.78	1086.667
215.00	1057.895
215.21	900.000
215.43	207.595
215.64	540.741
215.86	1240.000
216.07	736.842
216.28	282.222
216.50	9000.000
216.71	-9700.000
216.93	677.778
217.14	280.303
217.35	511.429
217.57	3275.000
217.78	374.286
218.00	4533.333
218.21	512.500
218.42	340.625
218.64	-8950.000
218.85	384.314
219.07	2214.286
219.28	277.049
219.49	-1141.667
219.71	1787.500
219.92	245.946
220.14	1950.000
220.35	327.273
220.56	1046.154
220.78	350.877
220.99	442.857
221.21	179.381
221.42	682.609
221.63	9850.000
221.85	712.500
222.06	520.000
222.28	232.000
222.49	-1888.889
222.70	305.556
222.92	-8950.000
223.13	336.842
223.34	225.000
223.56	1300.000
223.77	200.000
223.99	406.667
224.20	236.667
224.41	216.000
224.63	6800.000
224.84	5666.667
225.05	1007.692
225.27	423.077
225.48	395.000
225.69	215.294
225.91	293.750
226.12	240.580
226.34	465.625
226.55	217.647
226.76	301.961
226.98	220.455
227.19	183.333
227.40	350.000
227.62	197.260
227.83	152.679
228.04	183.117
228.26	116.964
228.47	145.000
228.69	88.235
228.90	74.405
229.11	82.969
229.33	76.077
229.54	66.390
229.75	51.590
229.97	56.402
230.18	63.787
230.39	48.485
230.61	52.560
230.82	64.452
231.03	53.503
231.25	65.436
231.46	54.762
231.67	56.226
231.89	52.381
232.10	74.340
232.31	84.375
232.53	84.862
232.74	75.229
232.95	82.353
233.17	84.103
233.38	79.474
233.59	96.067
233.81	93.210
234.02	95.429
234.23	68.041
234.45	94.091
234.66	85.057
234.87	97.093
235.09	75.000
235.30	84.951
235.51	83.857
235.73	88.384
235.94	59.821
236.15	89.925
236.36	77.333
236.58	72.727
236.79	71.121
237.00	71.486
237.22	86.772
237.43	80.545
237.64	87.578
237.86	85.377
238.07	89.496
238.28	72.441
238.50	68.900
238.71	87.047
238.92	66.038
239.13	81.183
239.35	68.465
239.56	86.111
239.77	113.661
239.99	54.839
240.20	82.879
240.41	70.079
240.63	48.358
240.84	57.965
241.05	54.730
241.26	52.381
241.48	50.153
241.69	38.753
241.90	35.862
242.12	36.196
242.33	39.773
242.54	26.218
242.75	22.727
242.97	35.127
243.18	15.081
243.39	21.149
243.61	24.704
243.82	27.382
244.03	23.087
244.24	22.760
244.46	25.204
244.67	23.570
244.88	26.055
245.09	31.683
245.31	32.787
245.52	23.427
245.73	38.995
245.95	55.159
246.16	38.393
246.37	32.492
246.58	32.000
246.80	29.862
247.01	29.621
247.22	18.591
247.43	24.383
247.65	18.198
247.86	16.563
248.07	10.158
248.28	15.603
248.50	17.620
248.71	11.118
248.92	13.837
249.13	14.172
249.35	12.641
249.56	13.853
249.77	14.602
249.98	15.544
250.20	21.154
250.41	25.831
250.62	29.171
250.83	20.839
251.05	27.312
251.26	29.617
251.47	30.388
251.68	27.568
251.90	21.182
252.11	30.616
252.32	22.491
252.53	26.100
252.75	25.544
252.96	28.846
253.17	19.342
253.38	25.579
253.59	26.296
253.81	26.829
254.02	22.800
254.23	21.457
254.44	22.429
254.66	23.856
254.87	31.525
255.08	28.419
255.29	41.603
255.50	33.605
255.72	31.961
255.93	36.996
256.14	43.103
256.35	33.411
256.57	40.049
256.78	33.333
256.99	32.649
257.20	44.050
257.41	30.722
257.63	30.639
257.84	32.068
258.05	29.693
258.26	26.206
258.47	34.319
258.69	26.459
258.90	22.576
259.11	18.605
259.32	22.776
259.53	18.135
259.75	16.305
259.96	13.424
260.17	15.165
260.38	13.302
260.59	13.402
260.81	10.872
261.02	11.774
261.23	12.744
261.44	13.266
261.65	9.883
261.87	13.712
262.08	12.485
262.29	16.707
262.50	11.089
262.71	12.859
262.92	18.443
263.14	13.304
263.35	10.647
263.56	13.263
263.77	21.154
263.98	17.680
264.20	24.913
264.41	16.373
264.62	21.739
264.83	18.373
265.04	31.698
265.25	22.909
265.47	22.880
265.68	25.802
265.89	27.248
266.10	20.499
266.31	23.619
266.52	20.071
266.74	21.739
266.95	19.568
267.16	15.513
267.37	17.065
267.58	17.123
267.79	19.108
268.01	21.107
268.22	16.266
268.43	17.718
268.64	16.667
268.85	12.197
269.06	19.408
269.27	19.021
269.49	19.519
269.70	14.369
269.91	15.636
270.12	18.802
270.33	18.632
270.54	16.667
270.75	15.913
270.97	19.285
271.18	13.072
271.39	17.881
271.60	17.089
271.81	14.566
272.02	13.339
272.23	16.101
272.45	12.857
272.66	10.836
272.87	16.738
273.08	10.688
273.29	13.393
273.50	10.849
273.71	12.840
273.92	12.281
274.14	10.635
274.35	11.417
274.56	18.575
274.77	13.141
274.98	16.940
275.19	11.559
275.40	12.338
275.61	14.725
275.83	16.569
276.04	15.188
276.25	16.667
276.46	17.748
276.67	16.869
276.88	19.069
277.09	22.007
277.30	16.257
277.51	14.844
277.73	12.753
277.94	13.102
278.15	17.857
278.36	18.814
278.57	14.057
278.78	14.919
278.99	16.799
279.20	15.842
279.41	16.281
279.62	16.465
279.84	14.915
280.05	16.760
280.26	14.982
280.47	18.885
280.68	19.366
280.89	17.603
281.10	17.066
281.31	15.948
281.52	18.159
281.73	14.297
281.94	10.396
282.16	17.863
282.37	12.199
282.58	14.348
282.79	17.842
283.00	15.216
283.21	10.828
283.42	11.806
283.63	13.770
283.84	12.628
284.05	13.957
284.26	13.722
284.47	12.492
284.68	14.647
284.89	13.215
285.11	13.974
285.32	10.554
285.53	14.067
285.74	15.403
285.95	13.302
286.16	12.635
286.37	10.892
286.58	12.374
286.79	11.439
287.00	13.623
287.21	7.875
287.42	11.782
287.63	10.394
287.84	12.206
288.05	13.983
288.26	12.169
288.48	14.692
288.69	10.156
288.90	13.597
289.11	13.002
289.32	14.126
289.53	11.473
289.74	10.923
289.95	13.596
290.16	13.345
290.37	10.791
290.58	10.192
290.79	10.283
291.00	12.421
291.21	11.738
291.42	9.302
291.63	9.881
291.84	12.514
292.05	11.221
292.26	8.348
292.47	9.332
292.68	10.368
292.89	11.302
293.10	14.416
293.31	13.238
293.52	10.958
293.73	12.125
293.94	15.047
294.15	15.252
294.36	9.719
294.57	15.717
294.79	12.328
295.00	9.904
295.21	13.115
295.42	13.739
295.63	14.644
295.84	10.947
296.05	10.217
296.26	9.670
296.47	10.859
296.68	9.096
296.89	12.043
297.10	9.916
297.31	10.137
297.52	10.786
297.73	9.586
297.94	8.123
298.15	9.510
298.36	10.004
298.57	8.496
298.78	9.793
298.99	7.131
299.20	9.921
299.41	9.903
299.62	8.055
299.83	10.315
300.04	9.631
300.25	13.400
300.46	11.469
300.67	11.323
300.88	12.816
301.09	11.571
301.30	12.722
301.50	12.429
301.71	14.172
301.92	12.918
302.13	11.591
302.34	12.574
302.55	12.758
302.76	10.253
302.97	9.829
303.18	11.365
303.39	12.950
303.60	7.578
303.81	11.609
304.02	10.414
304.23	11.905
304.44	12.523
304.65	10.529
304.86	11.024
305.07	10.892
305.28	11.047
305.49	10.171
305.70	11.423
305.91	10.189
306.12	14.123
306.33	10.819
306.54	12.081
306.75	12.985
306.96	18.696
307.17	11.627
307.38	10.739
307.58	12.343
307.79	12.023
308.00	14.004
308.21	12.384
308.42	12.292
308.63	13.955
308.84	9.542
309.05	11.690
309.26	10.767
309.47	11.536
309.68	10.610
309.89	11.722
310.10	10.311
310.31	9.110
310.52	7.858
310.73	9.718
310.94	6.022
311.14	9.643
311.35	10.107
311.56	7.548
311.77	7.765
311.98	9.679
312.19	6.762
312.40	9.898
312.61	7.660
312.82	8.376
313.03	8.674
313.24	10.090
313.45	10.666
313.66	9.378
313.86	12.708
314.07	9.063
314.28	14.185
314.49	9.326
314.70	12.849
314.91	15.249
315.12	11.553
315.33	12.049
315.54	9.275
315.75	10.655
315.96	9.122
316.16	9.766
316.37	11.272
316.58	11.371
316.79	10.414
317.00	12.661
317.21	10.529
317.42	15.376
317.63	12.257
317.84	9.612
318.05	10.273
318.25	13.926
318.46	9.748
318.67	9.736
318.88	10.504
319.09	9.579
319.30	11.345
319.51	11.402
319.72	10.562
319.93	10.880
320.13	12.321
320.34	13.271
320.55	10.846
320.76	11.262
320.97	11.927
321.18	11.392
321.39	11.153
321.60	11.576
321.80	15.789
322.01	11.302
322.22	11.536
322.43	11.538
322.64	9.091
322.85	12.258
323.06	11.942
323.27	12.703
323.47	12.087
323.68	13.153
323.89	9.624
324.10	14.607
324.31	8.243
324.52	6.506
324.73	9.891
324.93	9.726
325.14	9.690
325.35	9.546
325.56	9.256
325.77	13.181
325.98	9.347
326.19	12.486
326.39	7.491
326.60	10.524
326.81	11.837
327.02	10.673
327.23	6.910
327.44	11.675
327.64	8.119
327.85	9.844
328.06	11.750
328.27	12.913
328.48	11.740
328.69	9.802
328.90	10.819
329.10	9.607
329.31	12.275
329.52	10.046
329.73	11.960
329.94	8.767
330.15	11.446
330.35	10.786
330.56	9.562
330.77	9.825
330.98	12.720
331.19	10.148
331.39	9.983
331.60	12.954
331.81	7.952
332.02	14.021
332.23	11.289
332.44	8.855
332.64	10.235
332.85	10.099
333.06	10.896
333.27	8.398
333.48	11.171
333.68	9.989
333.89	10.123
334.10	7.841
334.31	13.062
334.52	8.053
334.72	10.112
334.93	7.809
335.14	10.711
335.35	8.240
335.56	8.896
335.76	9.029
335.97	8.935
336.18	8.970
336.39	10.400
336.60	12.431
336.80	10.759
337.01	10.565
337.22	6.895
337.43	11.756
337.64	12.006
337.84	11.787
338.05	10.410
338.26	11.058
338.47	11.044
338.68	7.540
338.88	9.932
339.09	10.079
339.30	8.178
339.51	9.578
339.71	11.185
339.92	8.553
340.13	9.614
340.34	10.193
340.55	5.912
340.75	8.835
340.96	6.704
341.17	10.021
341.38	7.190
341.58	8.729
341.79	9.143
342.00	7.917
342.21	8.985
342.41	6.851
342.62	9.608
342.83	10.338
343.04	7.149
343.24	7.852
343.45	8.863
343.66	8.850
343.87	8.148
344.07	8.376
344.28	7.813
344.49	9.488
344.70	9.771
344.90	7.361
345.11	6.280
345.32	8.055
345.53	8.225
345.73	9.343
345.94	6.180
346.15	10.429
346.36	5.922
346.56	8.454
346.77	8.683
346.98	9.217
347.19	6.209
347.39	6.480
347.60	6.924
347.81	10.113
348.02	8.809
348.22	6.309
348.43	7.637
348.64	11.136
348.84	8.528
349.05	9.044
349.26	8.751
349.47	8.028
349.67	9.673
349.88	10.131
350.09	10.394
350.30	8.841
350.50	8.141
350.71	9.729
350.92	8.351
351.12	7.971
351.33	9.798
351.54	7.716
351.74	6.429
351.95	8.966
352.16	9.316
352.37	11.644
352.57	7.892
352.78	8.248
352.99	8.817
353.19	8.705
353.40	9.371
353.61	9.920
353.82	7.781
354.02	9.796
354.23	7.520
354.44	10.813
354.64	7.513
354.85	9.597
355.06	8.966
355.26	6.391
355.47	8.701
355.68	12.410
355.88	11.620
356.09	7.772
356.30	6.824
356.51	8.964
356.71	7.660
356.92	6.782
357.13	9.832
357.33	10.030
357.54	9.188
357.75	8.301
357.95	9.049
358.16	7.793
358.37	10.359
358.57	8.417
358.78	11.257
358.99	9.710
359.19	9.066
359.40	11.245
359.61	9.609
359.81	11.230
360.02	13.245
360.23	9.143
360.43	9.130
360.64	9.739
360.85	10.525
361.05	7.921
361.26	11.738
361.47	9.066
361.67	12.441
361.88	8.252
362.09	9.864
362.29	8.239
362.50	9.302
362.70	7.557
362.91	12.888
363.12	10.304
363.32	11.434
363.53	11.716
363.74	13.127
363.94	8.852
364.15	15.074
364.36	12.179
364.56	11.770
364.77	12.444
364.98	15.358
365.18	12.710
365.39	15.149
365.59	11.379
365.80	10.969
366.01	12.906
366.21	10.821
366.42	10.692
366.63	14.255
366.83	11.626
367.04	9.436
367.24	15.945
367.45	11.091
367.66	10.195
367.86	12.055
368.07	12.116
368.28	13.350
368.48	12.464
368.69	9.585
368.89	12.330
369.10	12.162
369.31	13.780
369.51	12.366
369.72	15.765
369.92	15.430
370.13	11.713
370.34	15.529
370.54	9.405
370.75	14.638
370.95	9.850
371.16	12.663
371.37	12.371
371.57	12.607
371.78	11.427
371.98	15.830
372.19	12.640
372.40	15.324
372.60	13.147
372.81	14.368
373.01	10.458
373.22	12.177
373.43	14.138
373.63	14.611
373.84	14.917
374.04	14.774
374.25	13.804
374.46	14.920
374.66	12.927
374.87	15.877
375.07	10.397
375.28	12.058
375.48	13.958
375.69	14.418
375.90	10.000
376.10	12.250
376.31	10.690
376.51	11.521
376.72	11.784
376.92	10.147
377.13	12.510
377.34	15.519
377.54	12.911
377.75	15.413
377.95	12.378
378.16	15.287
378.36	15.357
378.57	14.746
378.77	14.300
378.98	15.337
379.19	13.267
379.39	12.910
379.60	13.323
379.80	13.159
380.01	16.252
380.21	12.593
380.42	14.559
380.62	12.370
380.83	14.587
381.04	13.065
381.24	14.473
381.45	13.990
381.65	11.900
381.86	14.901
382.06	14.343
382.27	13.240
382.47	11.385
382.68	14.957
382.88	11.824
383.09	11.475
383.29	12.736
383.50	16.201
383.71	13.086
383.91	12.898
384.12	10.999
384.32	14.033
384.53	11.660
384.73	10.954
384.94	11.109
385.14	11.556
385.35	12.151
385.55	13.629
385.76	11.475
385.96	13.605
386.17	13.423
386.37	14.941
386.58	12.156
386.78	16.260
386.99	10.836
387.19	15.502
387.40	12.345
387.60	17.096
387.81	11.735
388.01	13.643
388.22	14.113
388.42	15.945
388.63	15.390
388.83	16.563
389.04	10.750
389.24	12.609
389.45	12.665
389.65	12.638
389.86	13.139
390.06	12.436
390.27	10.408
390.47	13.147
390.68	12.767
390.88	14.937
391.09	15.117
391.29	14.260
391.50	12.970
391.70	14.718
391.91	12.932
392.11	14.176
392.32	15.425
392.52	14.532
392.73	12.889
392.93	14.426
393.14	13.651
393.34	13.977
393.55	14.939
393.75	14.107
393.95	13.042
394.16	15.694
394.36	14.397
394.57	15.291
394.77	14.560
394.98	14.108
395.18	15.223
395.39	15.438
395.59	14.513
395.80	14.149
396.00	13.834
396.21	17.389
396.41	11.883
396.61	15.004
396.82	14.242
397.02	17.521
397.23	14.812
397.43	13.767
397.64	12.433
397.84	15.812
398.05	11.329
398.25	14.975
398.45	13.766
398.66	14.675
398.86	12.884
399.07	16.681
399.27	13.600
399.48	16.314
399.68	13.064
399.89	13.197
400.09	13.969
400.29	13.794
400.50	14.056
400.70	15.230
400.91	11.405
401.11	13.444
401.32	14.010
401.52	12.516
401.72	14.355
401.93	16.039
402.13	14.491
402.34	14.487
402.54	10.265
402.75	16.236
402.95	12.585
403.15	16.589
403.36	13.344
403.56	15.799
403.77	12.508
403.97	13.600
404.17	12.199
404.38	14.466
404.58	12.116
404.79	15.557
404.99	14.430
405.19	13.868
405.40	13.833
405.60	14.601
405.81	14.254
406.01	14.034
406.21	13.532
406.42	15.838
406.62	14.861
406.83	15.877
407.03	16.465
407.23	13.392
407.44	13.526
407.64	15.775
407.85	15.301
408.05	14.950
408.25	13.996
408.46	15.920
408.66	14.093
408.87	13.462
409.07	14.286
409.27	12.787
409.48	13.555
409.68	15.016
409.88	12.056
410.09	13.343
410.29	14.922
410.50	14.986
410.70	11.686
410.90	14.117
411.11	13.313
411.31	13.957
411.51	13.916
411.72	16.252
411.92	12.149
412.12	13.811
412.33	12.766
412.53	14.061
412.74	11.504
412.94	15.675
413.14	13.024
413.35	13.979
413.55	13.806
413.75	14.149
413.96	11.829
414.16	14.468
414.36	14.096
414.57	14.660
414.77	11.994
414.97	15.176
415.18	11.741
415.38	13.847
415.58	14.414
415.79	14.674
415.99	13.571
416.19	15.394
416.40	13.332
416.60	14.480
416.80	13.545
417.01	14.553
417.21	12.781
417.41	15.995
417.62	14.556
417.82	15.135
418.02	12.307
418.23	14.288
418.43	13.927
418.63	15.054
418.84	15.187
419.04	14.753
419.24	15.504
419.45	15.355
419.65	15.489
419.85	15.295
420.06	14.841
420.26	15.249
420.46	14.451
420.67	15.766
420.87	15.257
421.07	15.751
421.28	14.972
421.48	16.034
421.68	15.897
421.88	16.030
422.09	15.457
422.29	15.898
422.49	15.393
422.70	15.578
422.90	15.690
423.10	16.352
423.31	16.160
423.51	15.697
423.71	14.764
423.91	15.716
424.12	15.530
424.32	16.137
424.52	15.670
424.73	14.948
424.93	15.151
425.13	15.442
425.33	14.583
425.54	15.728
425.74	15.340
425.94	15.710
426.15	15.470
426.35	15.389
426.55	16.097
426.75	16.200
426.96	15.828
427.16	15.273
427.36	16.191
427.57	16.910
427.77	15.497
427.97	15.227
428.17	15.577
428.38	15.773
428.58	13.446
428.78	15.970
428.98	14.170
429.19	14.414
429.39	12.825
429.59	15.790
429.79	12.731
430.00	14.455
430.20	12.812
430.40	14.387
430.60	13.624
430.81	15.338
431.01	12.890
431.21	14.724
431.41	14.115
431.62	15.042
431.82	14.236
432.02	15.583
432.22	13.783
432.43	14.103
432.63	13.044
432.83	15.784
433.03	14.228
433.24	15.175
433.44	13.933
433.64	15.626
433.84	14.279
434.05	15.620
434.25	14.572
434.45	15.575
434.65	16.488
434.85	16.505
435.06	15.581
435.26	16.380
435.46	16.071
435.66	16.797
435.87	15.513
436.07	16.712
436.27	15.986
436.47	15.602
436.67	15.493
436.88	16.299
437.08	16.616
437.28	16.041
437.48	15.320
437.69	16.100
437.89	15.670
438.09	16.741
438.29	15.334
438.49	17.131
438.70	16.519
438.90	15.918
439.10	15.729
439.30	16.456
439.50	15.854
439.71	16.269
439.91	16.021
440.11	17.020
440.31	16.466
440.51	16.507
440.72	16.266
440.92	15.545
441.12	16.613
441.32	16.907
441.52	16.607
441.72	17.314
441.93	16.483
442.13	16.806
442.33	16.741
442.53	17.842
442.73	17.422
442.94	17.255
443.14	17.239
443.34	17.265
443.54	17.315
443.74	18.351
443.94	17.457
444.15	17.579
444.35	16.902
444.55	17.139
444.75	16.216
444.95	17.194
445.15	17.229
445.36	17.443
445.56	16.391
445.76	17.355
445.96	16.742
446.16	16.558
446.36	16.391
446.57	17.365
446.77	16.844
446.97	16.211
447.17	17.263
447.37	16.819
447.57	16.658
447.77	17.023
447.98	17.232
448.18	17.476
448.38	17.516
448.58	17.497
448.78	18.363
448.98	18.170
449.18	18.028
449.39	17.833
449.59	18.071
449.79	18.341
449.99	17.620
450.19	18.351
450.39	18.108
450.59	17.578
450.79	17.165
451.00	17.940
451.20	18.820
451.40	17.684
451.60	17.780
451.80	17.767
452.00	16.803
452.20	17.387
452.40	17.116
452.61	17.526
452.81	16.680
453.01	17.317
453.21	17.310
453.41	18.020
453.61	16.621
453.81	17.401
454.01	17.366
454.21	18.106
454.42	18.368
454.62	17.444
454.82	18.182
455.02	18.296
455.22	16.632
455.42	18.746
455.62	16.802
455.82	18.303
456.02	17.504
456.23	18.190
456.43	18.003
456.63	17.836
456.83	15.755
457.03	17.529
457.23	17.997
457.43	17.311
457.63	17.305
457.83	17.338
458.03	16.499
458.23	16.598
458.43	16.572
458.64	17.282
458.84	16.391
459.04	17.569
459.24	17.002
459.44	16.581
459.64	16.570
459.84	16.936
460.04	16.867
460.24	17.124
460.44	16.665
460.64	16.791
460.84	17.267
461.04	17.174
461.24	17.755
461.45	17.423
461.65	17.950
461.85	18.024
462.05	18.324
462.25	18.258
462.45	18.923
462.65	18.045
462.85	17.557
463.05	18.726
463.25	17.827
463.45	18.191
463.65	18.366
463.85	18.182
464.05	17.202
464.25	18.278
