SpectraSuite Data File
++++++++++++++++++++++++++++++++++++
Date: Thu Sep 19 03:38:19 EST 2019
User: sgrac
Dark Spectrum Present: Yes
Reference Spectrum Present: Yes
Number of Sampled Component Spectra: 1
Spectrometers: USB4E01596
Integration Time (usec): 100000 (USB4E01596)
Spectra Averaged: 1 (USB4E01596)
Boxcar Smoothing: 0 (USB4E01596)
Correct for Electrical Dark: No (USB4E01596)
Strobe/Lamp Enabled: Yes (USB4E01596)
Correct for Detector Non-linearity: No (USB4E01596)
Correct for Stray Light: No (USB4E01596)
Number of Pixels in Processed Spectrum: 3648
>>>>>Begin Processed Spectral Data<<<<<
178.44	928.571
178.66	928.571
178.87	928.571
179.09	-1063.636
179.30	226.786
179.52	1900.000
179.74	-833.333
179.95	904.762
180.17	1600.000
180.38	323.881
180.60	0.000
180.82	774.194
181.03	242.593
181.25	3000.000
181.46	1146.154
181.68	-344.186
181.89	1264.286
182.11	854.167
182.33	629.630
182.54	1408.333
182.76	1061.111
182.97	-632.143
183.19	423.810
183.40	360.000
183.62	576.190
183.84	1700.000
184.05	1173.333
184.27	-7250.000
184.48	285.714
184.70	7300.000
184.91	738.462
185.13	309.859
185.34	-242.308
185.56	644.444
185.78	534.615
185.99	-4550.000
186.21	-1118.182
186.42	-282.500
186.64	873.333
186.85	-7550.000
187.07	640.909
187.28	1257.143
187.50	654.545
187.72	397.222
187.93	1044.444
188.15	1015.789
188.36	1070.588
188.58	517.949
188.79	2533.333
189.01	666.667
189.22	3420.000
189.44	825.000
189.65	-6400.000
189.87	3825.000
190.09	1058.824
190.30	2371.429
190.52	1541.667
190.73	-511.538
190.95	397.727
191.16	591.667
191.38	525.000
191.59	-1263.636
191.81	713.636
192.02	1180.000
192.24	696.154
192.45	2025.000
192.67	2450.000
192.88	-514.815
193.10	-20100.000
193.31	588.571
193.53	-776.190
193.74	-3650.000
193.96	2033.333
194.18	943.750
194.39	502.439
194.61	1100.000
194.82	1490.909
195.04	640.000
195.25	6066.667
195.47	505.263
195.68	741.176
195.90	318.605
196.11	753.846
196.33	-2188.889
196.54	-1010.526
196.76	727.273
196.97	1611.111
197.19	-18500.000
197.40	1383.333
197.62	2750.000
197.83	1223.077
198.05	585.714
198.26	382.500
198.48	470.588
198.69	-1955.556
198.91	827.778
199.12	497.143
199.34	-2085.714
199.55	264.912
199.77	406.522
199.98	-1745.455
200.20	780.000
200.41	8500.000
200.63	660.714
200.84	704.762
201.06	-1476.923
201.27	-2640.000
201.49	1291.667
201.70	718.750
201.91	-8400.000
202.13	810.526
202.34	408.696
202.56	7550.000
202.77	993.750
202.99	396.000
203.20	536.364
203.42	-2357.143
203.63	2983.333
203.85	550.000
204.06	721.739
204.28	1737.500
204.49	-1180.000
204.71	497.561
204.92	368.889
205.14	428.889
205.35	310.000
205.56	2800.000
205.78	1018.182
205.99	-1220.000
206.21	691.304
206.42	277.966
206.64	-3066.667
206.85	761.905
207.07	800.000
207.28	-3080.000
207.50	359.259
207.71	662.500
207.93	387.500
208.14	729.630
208.35	911.765
208.57	-464.000
208.78	-390.244
209.00	379.070
209.21	442.857
209.43	568.000
209.64	12500.000
209.86	723.810
210.07	582.759
210.28	-1076.923
210.50	952.941
210.71	755.000
210.93	546.875
211.14	294.286
211.36	402.174
211.57	830.000
211.78	448.718
212.00	1113.333
212.21	970.588
212.43	1240.000
212.64	610.000
212.86	239.744
213.07	637.931
213.29	650.000
213.50	525.806
213.71	660.000
213.93	2614.286
214.14	941.176
214.36	2112.500
214.57	271.831
214.78	1113.333
215.00	1021.053
215.21	727.778
215.43	270.886
215.64	540.741
215.86	1066.667
216.07	678.947
216.28	382.222
216.50	8400.000
216.71	-17500.000
216.93	722.222
217.14	275.758
217.35	494.286
217.57	2775.000
217.78	534.286
218.00	4400.000
218.21	612.500
218.42	318.750
218.64	-7650.000
218.85	331.373
219.07	2114.286
219.28	281.967
219.49	-1200.000
219.71	1737.500
219.92	275.676
220.14	1662.500
220.35	454.545
220.56	1361.538
220.78	284.211
220.99	540.000
221.21	174.227
221.42	604.348
221.63	6750.000
221.85	575.000
222.06	630.000
222.28	293.333
222.49	-1577.778
222.70	296.296
222.92	-9850.000
223.13	400.000
223.34	214.130
223.56	1325.000
223.77	235.294
223.99	355.556
224.20	291.667
224.41	214.667
224.63	9800.000
224.84	5566.667
225.05	1176.923
225.27	376.923
225.48	328.333
225.69	171.765
225.91	321.875
226.12	221.739
226.34	531.250
226.55	230.882
226.76	390.196
226.98	218.182
227.19	191.026
227.40	306.000
227.62	241.096
227.83	173.214
228.04	183.117
228.26	109.821
228.47	133.333
228.69	139.706
228.90	94.643
229.11	65.502
229.33	97.129
229.54	80.498
229.75	80.565
229.97	66.159
230.18	62.791
230.39	45.960
230.61	70.307
230.82	70.432
231.03	50.000
231.25	61.409
231.46	67.857
231.67	69.057
231.89	69.048
232.10	80.755
232.31	108.929
232.53	88.532
232.74	63.303
232.95	80.392
233.17	96.923
233.38	85.789
233.59	116.292
233.81	106.790
234.02	106.286
234.23	81.443
234.45	89.091
234.66	86.207
234.87	84.302
235.09	78.191
235.30	100.000
235.51	79.821
235.73	67.172
235.94	74.107
236.15	75.000
236.36	81.333
236.58	77.512
236.79	90.948
237.00	69.880
237.22	96.825
237.43	78.599
237.64	103.727
237.86	83.019
238.07	95.378
238.28	85.433
238.50	78.947
238.71	88.083
238.92	68.396
239.13	95.161
239.35	78.423
239.56	79.444
239.77	118.033
239.99	63.710
240.20	89.105
240.41	73.228
240.63	57.910
240.84	74.336
241.05	59.797
241.26	42.857
241.48	50.765
241.69	50.136
241.90	36.552
242.12	39.264
242.33	49.242
242.54	32.437
242.75	29.125
242.97	38.102
243.18	21.376
243.39	22.454
243.61	26.675
243.82	33.052
244.03	26.093
244.24	25.666
244.46	32.834
244.67	36.541
244.88	35.953
245.09	35.149
245.31	39.016
245.52	32.343
245.73	47.834
245.95	61.310
246.16	39.464
246.37	28.620
246.58	30.000
246.80	37.519
247.01	31.089
247.22	24.596
247.43	29.886
247.65	26.851
247.86	29.102
248.07	15.786
248.28	24.965
248.50	25.133
248.71	19.636
248.92	25.304
249.13	25.430
249.35	24.718
249.56	24.603
249.77	28.384
249.98	22.625
250.20	32.308
250.41	39.135
250.62	38.820
250.83	29.227
251.05	31.503
251.26	27.003
251.47	36.744
251.68	42.637
251.90	32.677
252.11	38.602
252.32	23.875
252.53	29.326
252.75	31.785
252.96	36.676
253.17	27.632
253.38	31.303
253.59	27.901
253.81	26.059
254.02	27.261
254.23	28.070
254.44	28.143
254.66	24.673
254.87	34.407
255.08	36.767
255.29	48.473
255.50	35.031
255.72	35.490
255.93	50.897
256.14	51.724
256.35	30.858
256.57	43.489
256.78	35.526
256.99	38.060
257.20	45.303
257.41	37.320
257.63	38.722
257.84	44.972
258.05	28.544
258.26	32.958
258.47	29.721
258.69	28.087
258.90	21.708
259.11	22.868
259.32	24.437
259.53	23.053
259.75	20.735
259.96	20.016
260.17	17.267
260.38	18.850
260.59	20.679
260.81	19.702
261.02	18.594
261.23	23.535
261.44	21.367
261.65	24.480
261.87	22.408
262.08	23.751
262.29	26.816
262.50	20.104
262.71	19.971
262.92	26.148
263.14	24.821
263.35	15.920
263.56	22.737
263.77	26.068
263.98	22.099
264.20	31.834
264.41	21.537
264.62	25.839
264.83	21.129
265.04	34.881
265.25	27.928
265.47	32.974
265.68	33.891
265.89	24.027
266.10	21.288
266.31	30.525
266.52	27.078
266.74	26.570
266.95	20.839
267.16	21.094
267.37	25.217
267.58	25.025
267.79	22.502
268.01	26.079
268.22	23.105
268.43	22.449
268.64	23.653
268.85	21.788
269.06	23.760
269.27	31.948
269.49	25.490
269.70	23.204
269.91	20.000
270.12	20.922
270.33	27.849
270.54	25.291
270.75	18.832
270.97	22.201
271.18	16.713
271.39	20.151
271.60	25.588
271.81	21.295
272.02	16.933
272.23	21.310
272.45	15.714
272.66	17.309
272.87	18.590
273.08	21.784
273.29	20.749
273.50	19.340
273.71	23.447
273.92	16.599
274.14	18.316
274.35	22.047
274.56	23.045
274.77	23.827
274.98	20.970
275.19	20.791
275.40	22.646
275.61	18.204
275.83	26.577
276.04	23.549
276.25	22.491
276.46	25.495
276.67	23.875
276.88	27.065
277.09	28.085
277.30	28.535
277.51	22.309
277.73	21.372
277.94	20.053
278.15	23.519
278.36	25.424
278.57	20.285
278.78	25.149
278.99	21.988
279.20	22.070
279.41	22.757
279.62	21.116
279.84	20.485
280.05	21.695
280.26	18.750
280.47	26.619
280.68	21.391
280.89	21.794
281.10	24.077
281.31	21.806
281.52	22.762
281.73	15.074
281.94	18.231
282.16	21.536
282.37	19.503
282.58	18.986
282.79	26.587
283.00	20.190
283.21	20.552
283.42	17.217
283.63	21.992
283.84	14.745
284.05	20.596
284.26	18.876
284.47	20.489
284.68	21.771
284.89	17.357
285.11	17.815
285.32	15.896
285.53	17.568
285.74	24.418
285.95	17.577
286.16	21.343
286.37	16.874
286.58	21.576
286.79	16.869
287.00	19.374
287.21	15.396
287.42	22.366
287.63	16.955
287.84	19.408
288.05	19.587
288.26	20.498
288.48	19.313
288.69	15.144
288.90	18.665
289.11	22.518
289.32	18.482
289.53	17.304
289.74	15.088
289.95	17.105
290.16	23.007
290.37	16.187
290.58	12.871
290.79	11.034
291.00	18.056
291.21	14.980
291.42	13.566
291.63	15.713
291.84	19.080
292.05	14.356
292.26	17.153
292.47	17.062
292.68	14.356
292.89	16.982
293.10	20.352
293.31	16.594
293.52	14.402
293.73	15.711
293.94	17.206
294.15	16.337
294.36	13.484
294.57	20.367
294.79	16.525
295.00	13.055
295.21	17.486
295.42	20.263
295.63	16.497
295.84	13.728
296.05	12.742
296.26	14.066
296.47	13.917
296.68	16.362
296.89	18.011
297.10	15.950
297.31	17.350
297.52	13.755
297.73	13.816
297.94	14.536
298.15	13.563
298.36	14.109
298.57	13.043
298.78	16.919
298.99	12.469
299.20	16.065
299.41	14.771
299.62	15.176
299.83	12.369
300.04	16.483
300.25	18.362
300.46	17.812
300.67	18.386
300.88	18.372
301.09	15.315
301.30	18.944
301.50	16.215
301.71	22.336
301.92	16.735
302.13	14.488
302.34	16.489
302.55	11.695
302.76	15.553
302.97	16.480
303.18	14.372
303.39	12.427
303.60	15.031
303.81	16.912
304.02	13.905
304.23	16.434
304.44	16.310
304.65	15.586
304.86	15.361
305.07	14.195
305.28	12.267
305.49	16.114
305.70	16.567
305.91	14.887
306.12	14.904
306.33	17.011
306.54	14.643
306.75	15.837
306.96	20.683
307.17	13.614
307.38	14.656
307.58	13.980
307.79	17.430
308.00	15.978
308.21	15.170
308.42	16.645
308.63	17.106
308.84	13.232
309.05	14.597
309.26	12.796
309.47	16.595
309.68	12.864
309.89	14.694
310.10	14.197
310.31	11.244
310.52	12.327
310.73	16.113
310.94	10.415
311.14	11.716
311.35	15.160
311.56	12.518
311.77	13.210
311.98	13.257
312.19	11.165
312.40	13.610
312.61	14.398
312.82	16.153
313.03	14.456
313.24	14.780
313.45	15.789
313.66	14.966
313.86	14.070
314.07	13.646
314.28	19.383
314.49	13.315
314.70	15.756
314.91	20.117
315.12	14.538
315.33	15.541
315.54	12.000
315.75	11.795
315.96	12.999
316.16	11.345
316.37	14.165
316.58	13.886
316.79	15.132
317.00	18.410
317.21	13.538
317.42	17.414
317.63	14.614
317.84	14.328
318.05	15.024
318.25	15.857
318.46	12.977
318.67	14.194
318.88	16.206
319.09	15.314
319.30	13.145
319.51	13.171
319.72	13.370
319.93	14.792
320.13	16.488
320.34	16.636
320.55	14.044
320.76	13.538
320.97	14.313
321.18	18.481
321.39	15.375
321.60	12.848
321.80	18.885
322.01	13.946
322.22	16.571
322.43	14.872
322.64	10.617
322.85	14.196
323.06	15.085
323.27	16.526
323.47	15.327
323.68	15.796
323.89	12.832
324.10	16.686
324.31	12.109
324.52	14.638
324.73	15.082
324.93	12.312
325.14	14.208
325.35	15.348
325.56	12.999
325.77	14.656
325.98	14.322
326.19	12.595
326.39	9.653
326.60	14.314
326.81	13.998
327.02	11.887
327.23	11.167
327.44	16.294
327.64	11.943
327.85	11.753
328.06	17.100
328.27	20.651
328.48	14.966
328.69	12.373
328.90	12.763
329.10	12.500
329.31	16.203
329.52	12.009
329.73	16.227
329.94	15.441
330.15	16.867
330.35	13.597
330.56	15.424
330.77	14.912
330.98	16.079
331.19	11.810
331.39	14.804
331.60	10.732
331.81	10.927
332.02	16.265
332.23	13.547
332.44	12.803
332.64	14.353
332.85	12.638
333.06	14.385
333.27	11.823
333.48	14.984
333.68	12.421
333.89	13.283
334.10	12.191
334.31	16.092
334.52	11.627
334.72	10.925
334.93	11.388
335.14	10.968
335.35	12.068
335.56	14.024
335.76	9.239
335.97	12.312
336.18	9.939
336.39	16.849
336.60	15.058
336.80	14.527
337.01	12.798
337.22	10.764
337.43	16.626
337.64	15.373
337.84	13.623
338.05	13.446
338.26	16.084
338.47	15.046
338.68	9.667
338.88	14.411
339.09	13.422
339.30	11.753
339.51	13.845
339.71	14.532
339.92	10.020
340.13	13.616
340.34	12.982
340.55	9.939
340.75	13.353
340.96	10.131
341.17	15.806
341.38	9.839
341.58	11.175
341.79	12.286
342.00	10.648
342.21	13.842
342.41	8.576
342.62	12.523
342.83	13.578
343.04	8.983
343.24	12.441
343.45	12.038
343.66	10.422
343.87	10.593
344.07	11.060
344.28	12.393
344.49	12.447
344.70	13.581
344.90	11.368
345.11	10.336
345.32	10.859
345.53	11.169
345.73	13.552
345.94	11.987
346.15	12.965
346.36	12.183
346.56	12.767
346.77	13.210
346.98	12.724
347.19	13.162
347.39	9.742
347.60	11.070
347.81	12.804
348.02	12.043
348.22	9.824
348.43	11.411
348.64	10.075
348.84	10.772
349.05	12.388
349.26	13.218
349.47	11.690
349.67	10.763
349.88	13.819
350.09	12.724
350.30	13.681
350.50	11.101
350.71	12.839
350.92	13.501
351.12	11.727
351.33	13.078
351.54	10.620
351.74	11.745
351.95	11.970
352.16	13.596
352.37	13.607
352.57	11.552
352.78	12.239
352.99	13.115
353.19	12.991
353.40	12.191
353.61	13.773
353.82	11.605
354.02	12.787
354.23	11.689
354.44	14.745
354.64	10.576
354.85	14.666
355.06	13.103
355.26	9.983
355.47	13.429
355.68	15.221
355.88	13.132
356.09	13.521
356.30	12.150
356.51	15.100
356.71	12.418
356.92	11.724
357.13	16.224
357.33	17.006
357.54	15.552
357.75	12.154
357.95	15.907
358.16	12.977
358.37	16.644
358.57	12.142
358.78	17.755
358.99	14.787
359.19	14.103
359.40	17.288
359.61	16.710
359.81	17.415
360.02	19.850
360.23	14.054
360.43	15.462
360.64	15.161
360.85	16.459
361.05	14.272
361.26	20.564
361.47	17.052
361.67	19.059
361.88	13.706
362.09	17.569
362.29	15.015
362.50	17.081
362.70	15.710
362.91	21.629
363.12	18.112
363.32	20.232
363.53	18.927
363.74	20.543
363.94	15.638
364.15	23.099
364.36	19.621
364.56	19.644
364.77	19.340
364.98	23.974
365.18	19.615
365.39	22.723
365.59	17.193
365.80	17.867
366.01	21.447
366.21	17.460
366.42	18.302
366.63	21.909
366.83	17.360
367.04	14.767
367.24	22.151
367.45	18.310
367.66	17.146
367.86	19.957
368.07	19.741
368.28	19.899
368.48	19.754
368.69	16.656
368.89	19.017
369.10	20.270
369.31	19.298
369.51	20.415
369.72	21.409
369.92	23.640
370.13	15.250
370.34	21.634
370.54	14.693
370.75	21.207
370.95	14.925
371.16	21.012
371.37	17.834
371.57	18.681
371.78	19.045
371.98	21.864
372.19	20.330
372.40	22.561
372.60	19.778
372.81	20.150
373.01	17.298
373.22	19.701
373.43	21.192
373.63	22.956
373.84	20.077
374.04	22.535
374.25	19.337
374.46	22.972
374.66	20.366
374.87	23.133
375.07	15.338
375.28	19.153
375.48	17.896
375.69	21.747
375.90	15.988
376.10	18.989
376.31	18.592
376.51	18.210
376.72	17.287
376.92	16.975
377.13	21.701
377.34	21.644
377.54	18.095
377.75	21.826
377.95	19.349
378.16	21.529
378.36	20.182
378.57	22.081
378.77	20.136
378.98	21.738
379.19	19.248
379.39	20.600
379.60	20.907
379.80	19.739
380.01	21.695
380.21	19.899
380.42	20.563
380.62	19.661
380.83	20.799
381.04	20.820
381.24	21.644
381.45	19.899
381.65	18.611
381.86	19.054
382.06	20.199
382.27	19.520
382.47	16.959
382.68	23.061
382.88	17.338
383.09	19.597
383.29	18.471
383.50	22.267
383.71	18.464
383.91	18.146
384.12	16.738
384.32	21.681
384.53	17.972
384.73	17.191
384.94	17.436
385.14	20.290
385.35	16.977
385.55	21.285
385.76	16.731
385.96	19.143
386.17	19.264
386.37	19.747
386.58	18.044
386.78	20.743
386.99	18.855
387.19	23.196
387.40	17.944
387.60	23.518
387.81	18.567
388.01	18.778
388.22	19.433
388.42	20.435
388.63	20.210
388.83	21.406
389.04	16.920
389.24	19.166
389.45	19.069
389.65	18.837
389.86	19.253
390.06	18.532
390.27	16.276
390.47	20.408
390.68	17.000
390.88	21.642
391.09	18.694
391.29	20.588
391.50	18.776
391.70	20.627
391.91	17.704
392.11	18.853
392.32	20.177
392.52	21.188
392.73	19.968
392.93	21.139
393.14	19.240
393.34	19.798
393.55	19.720
393.75	20.543
393.95	19.353
394.16	20.918
394.36	21.061
394.57	21.463
394.77	18.780
394.98	19.087
395.18	20.433
395.39	20.973
395.59	18.853
395.80	19.782
396.00	17.587
396.21	21.068
396.41	17.824
396.61	22.801
396.82	19.817
397.02	22.302
397.23	20.286
397.43	20.551
397.64	17.429
397.84	20.829
398.05	16.136
398.25	19.450
398.45	18.707
398.66	20.684
398.86	18.620
399.07	21.187
399.27	17.977
399.48	21.561
399.68	17.489
399.89	18.149
400.09	19.289
400.29	18.539
400.50	19.255
400.70	20.504
400.91	17.768
401.11	19.505
401.32	19.005
401.52	17.221
401.72	18.256
401.93	20.735
402.13	19.644
402.34	19.861
402.54	17.575
402.75	21.517
402.95	16.991
403.15	21.614
403.36	17.595
403.56	20.205
403.77	17.448
403.97	18.461
404.17	17.276
404.38	18.984
404.58	17.868
404.79	21.199
404.99	18.289
405.19	19.865
405.40	19.674
405.60	19.221
405.81	18.462
406.01	19.813
406.21	18.751
406.42	20.075
406.62	19.031
406.83	20.722
407.03	19.705
407.23	19.422
407.44	17.337
407.64	19.394
407.85	20.153
408.05	18.587
408.25	17.635
408.46	19.960
408.66	18.101
408.87	18.441
409.07	18.197
409.27	16.542
409.48	17.498
409.68	19.454
409.88	14.835
410.09	18.577
410.29	18.941
410.50	19.810
410.70	17.278
410.90	19.484
411.11	16.448
411.31	18.768
411.51	18.326
411.72	19.996
411.92	16.945
412.12	17.833
412.33	17.716
412.53	18.106
412.74	15.213
412.94	18.016
413.14	17.440
413.35	19.258
413.55	17.942
413.75	19.356
413.96	15.717
414.16	18.572
414.36	19.154
414.57	18.466
414.77	17.020
414.97	19.243
415.18	15.493
415.38	17.983
415.58	16.941
415.79	18.491
415.99	16.127
416.19	19.256
416.40	17.246
416.60	18.428
416.80	18.180
417.01	17.866
417.21	16.619
417.41	18.799
417.62	17.798
417.82	18.330
418.02	16.236
418.23	18.297
418.43	17.871
418.63	19.129
418.84	17.874
419.04	17.238
419.24	19.423
419.45	18.931
419.65	18.725
419.85	17.677
420.06	18.246
420.26	18.543
420.46	18.257
420.67	18.392
420.87	18.193
421.07	18.262
421.28	17.491
421.48	18.235
421.68	18.406
421.88	18.479
422.09	18.271
422.29	18.645
422.49	18.511
422.70	17.999
422.90	18.160
423.10	19.576
423.31	19.108
423.51	18.593
423.71	18.046
423.91	18.076
424.12	18.110
424.32	18.145
424.52	17.937
424.73	18.213
424.93	17.835
425.13	18.284
425.33	17.243
425.54	17.391
425.74	17.758
425.94	18.701
426.15	18.265
426.35	18.222
426.55	19.170
426.75	18.879
426.96	18.619
427.16	18.570
427.36	19.269
427.57	19.196
427.77	19.110
427.97	19.479
428.17	18.534
428.38	18.925
428.58	17.827
428.78	19.803
428.98	17.023
429.19	18.164
429.39	16.906
429.59	18.042
429.79	17.128
430.00	17.626
430.20	16.530
430.40	17.111
430.60	17.541
430.81	18.365
431.01	16.683
431.21	17.543
431.41	16.967
431.62	18.183
431.82	17.315
432.02	19.224
432.22	17.272
432.43	17.789
432.63	16.376
432.83	18.095
433.03	16.816
433.24	17.995
433.44	17.252
433.64	17.804
433.84	17.002
434.05	18.367
434.25	17.936
434.45	18.767
434.65	18.531
434.85	18.441
435.06	18.386
435.26	18.966
435.46	18.673
435.66	18.985
435.87	18.556
436.07	18.696
436.27	18.372
436.47	18.177
436.67	17.523
436.88	18.482
437.08	18.694
437.28	18.590
437.48	18.081
437.69	18.256
437.89	18.381
438.09	18.947
438.29	17.556
438.49	18.997
438.70	18.619
438.90	18.050
439.10	18.071
439.30	18.323
439.50	17.552
439.71	18.307
439.91	18.276
440.11	18.597
440.31	18.150
440.51	17.690
440.72	18.017
440.92	17.871
441.12	18.697
441.32	18.437
441.52	18.712
441.72	18.519
441.93	18.650
442.13	18.510
442.33	18.694
442.53	18.588
442.73	19.142
442.94	18.675
443.14	18.118
443.34	19.520
443.54	18.724
443.74	19.292
443.94	18.436
444.15	19.081
444.35	18.720
444.55	19.044
444.75	18.142
444.95	18.808
445.15	18.383
445.36	17.872
445.56	17.572
445.76	18.293
445.96	17.664
446.16	18.575
446.36	18.028
446.57	18.311
446.77	17.698
446.97	17.846
447.17	18.182
447.37	18.119
447.57	18.843
447.77	18.708
447.98	18.254
448.18	18.933
448.38	18.812
448.58	19.090
448.78	19.037
448.98	19.701
449.18	18.855
449.39	18.905
449.59	18.931
449.79	19.407
449.99	18.592
450.19	19.165
450.39	19.211
450.59	18.483
450.79	18.735
451.00	18.456
451.20	20.467
451.40	19.518
451.60	19.040
451.80	19.217
452.00	18.397
452.20	19.219
452.40	19.098
452.61	18.722
452.81	17.513
453.01	19.116
453.21	19.127
453.41	18.823
453.61	18.617
453.81	18.939
454.01	18.441
454.21	18.570
454.42	19.063
454.62	19.660
454.82	18.970
455.02	19.511
455.22	18.775
455.42	18.334
455.62	18.063
455.82	19.579
456.02	19.335
456.23	19.346
456.43	18.975
456.63	18.838
456.83	17.794
457.03	18.998
457.23	20.105
457.43	18.976
457.63	17.873
457.83	20.010
458.03	18.780
458.23	18.341
458.43	18.338
458.64	18.232
458.84	18.517
459.04	18.854
459.24	18.578
459.44	18.555
459.64	17.113
459.84	18.039
460.04	17.732
460.24	17.812
460.44	17.971
460.64	18.010
460.84	18.796
461.04	17.978
461.24	18.021
461.45	18.419
461.65	18.519
