SpectraSuite Data File
++++++++++++++++++++++++++++++++++++
Date: Fri Sep 20 02:55:14 EST 2019
User: sgrac
Dark Spectrum Present: Yes
Reference Spectrum Present: Yes
Number of Sampled Component Spectra: 1
Spectrometers: USB4E01596
Integration Time (usec): 100000 (USB4E01596)
Spectra Averaged: 1 (USB4E01596)
Boxcar Smoothing: 0 (USB4E01596)
Correct for Electrical Dark: No (USB4E01596)
Strobe/Lamp Enabled: Yes (USB4E01596)
Correct for Detector Non-linearity: No (USB4E01596)
Correct for Stray Light: No (USB4E01596)
Number of Pixels in Processed Spectrum: 3648
>>>>>Begin Processed Spectral Data<<<<<
178.44	204.348
178.66	204.348
178.87	204.348
179.09	-275.000
179.30	46.667
179.52	378.571
179.74	1580.000
179.95	-162.857
180.17	-518.750
180.38	-356.250
180.60	-212.903
180.82	321.739
181.03	-1475.000
181.25	-730.000
181.46	-800.000
181.68	0.000
181.89	10300.000
182.11	925.000
182.33	676.923
182.54	-125.714
182.76	212.000
182.97	281.481
183.19	1033.333
183.40	-468.750
183.62	700.000
183.84	-262.500
184.05	0.000
184.27	5800.000
184.48	290.000
184.70	4700.000
184.91	846.154
185.13	290.909
185.34	190.741
185.56	-176.190
185.78	326.316
185.99	-3700.000
186.21	367.857
186.42	625.000
186.64	171.642
186.85	133.333
187.07	575.000
187.28	-62.162
187.50	-527.273
187.72	175.000
187.93	9100.000
188.15	372.727
188.36	173.077
188.58	400.000
188.79	1950.000
189.01	320.588
189.22	725.000
189.44	265.957
189.65	-560.000
189.87	285.714
190.09	255.556
190.30	-1420.000
190.52	380.488
190.73	403.704
190.95	-538.462
191.16	-500.000
191.38	-378.261
191.59	900.000
191.81	172.500
192.02	235.000
192.24	192.063
192.45	228.571
192.67	295.455
192.88	0.000
193.10	311.765
193.31	-520.000
193.53	195.455
193.74	205.263
193.96	890.000
194.18	197.101
194.39	198.000
194.61	356.667
194.82	317.241
195.04	666.667
195.25	182.979
195.47	389.474
195.68	-980.000
195.90	2300.000
196.11	2250.000
196.33	-344.444
196.54	410.345
196.76	84.444
196.97	461.111
197.19	-394.444
197.40	252.778
197.62	-221.429
197.83	646.667
198.05	315.789
198.26	236.364
198.48	666.667
198.69	291.429
198.91	957.143
199.12	272.500
199.34	203.077
199.55	-754.545
199.77	515.000
199.98	1020.000
200.20	300.000
200.41	330.303
200.63	-1520.000
200.84	392.683
201.06	-8200.000
201.27	417.647
201.49	188.525
201.70	623.529
201.91	681.250
202.13	340.000
202.34	2375.000
202.56	771.429
202.77	-1450.000
202.99	573.333
203.20	333.333
203.42	-235.714
203.63	348.387
203.85	-166.667
204.06	3266.667
204.28	-1800.000
204.49	928.571
204.71	187.500
204.92	922.222
205.14	0.000
205.35	346.667
205.56	275.000
205.78	317.949
205.99	232.432
206.21	248.276
206.42	2083.333
206.64	-190.244
206.85	586.667
207.07	661.538
207.28	276.667
207.50	-437.500
207.71	269.767
207.93	3250.000
208.14	-97.297
208.35	244.828
208.57	-225.000
208.78	237.931
209.00	205.263
209.21	0.000
209.43	430.435
209.64	204.651
209.86	971.429
210.07	672.727
210.28	396.429
210.50	1780.000
210.71	228.205
210.93	202.632
211.14	195.082
211.36	297.143
211.57	1287.500
211.78	-277.273
212.00	392.308
212.21	-289.474
212.43	322.581
212.64	407.143
212.86	360.714
213.07	217.857
213.29	190.789
213.50	-197.059
213.71	-7000.000
213.93	-755.556
214.14	593.333
214.36	-1400.000
214.57	144.186
214.78	320.000
215.00	-2500.000
215.21	-1583.333
215.43	-278.788
215.64	606.250
215.86	-1425.000
216.07	542.857
216.28	185.484
216.50	163.830
216.71	-2000.000
216.93	721.429
217.14	236.111
217.35	159.211
217.57	-400.000
217.78	800.000
218.00	238.636
218.21	145.902
218.42	220.408
218.64	286.667
218.85	167.241
219.07	208.000
219.28	438.095
219.49	-581.818
219.71	326.190
219.92	1650.000
220.14	2366.667
220.35	1200.000
220.56	400.000
220.78	192.063
220.99	1400.000
221.21	254.054
221.42	248.148
221.63	288.889
221.85	5600.000
222.06	196.552
222.28	325.000
222.49	9400.000
222.70	-2033.333
222.92	196.429
223.13	144.928
223.34	178.182
223.56	205.405
223.77	618.750
223.99	126.923
224.20	76.577
224.41	279.070
224.63	182.353
224.84	400.000
225.05	179.167
225.27	157.407
225.48	140.506
225.69	209.091
225.91	116.883
226.12	177.419
226.34	144.928
226.55	156.250
226.76	76.119
226.98	58.772
227.19	136.667
227.40	91.429
227.62	63.514
227.83	92.632
228.04	107.407
228.26	50.926
228.47	54.167
228.69	58.791
228.90	56.180
229.11	26.054
229.33	28.689
229.54	50.612
229.75	28.137
229.97	19.257
230.18	30.978
230.39	20.000
230.61	29.193
230.82	32.353
231.03	26.632
231.25	31.105
231.46	39.048
231.67	41.081
231.89	42.279
232.10	33.206
232.31	32.093
232.53	49.421
232.74	46.311
232.95	33.166
233.17	42.262
233.38	26.389
233.59	35.882
233.81	40.708
234.02	12.315
234.23	51.075
234.45	69.536
234.66	36.139
234.87	27.326
235.09	15.556
235.30	18.710
235.51	27.586
235.73	43.750
235.94	46.237
236.15	22.761
236.36	21.097
236.58	37.657
236.79	47.876
237.00	29.317
237.22	40.948
237.43	50.000
237.64	24.091
237.86	54.412
238.07	24.303
238.28	50.463
238.50	35.124
238.71	33.333
238.92	24.265
239.13	30.357
239.35	31.797
239.56	13.242
239.77	37.154
239.99	48.437
240.20	38.849
240.41	39.185
240.63	26.154
240.84	28.302
241.05	28.490
241.26	22.674
241.48	25.693
241.69	23.025
241.90	28.352
242.12	17.706
242.33	18.061
242.54	19.176
242.75	7.207
242.97	17.664
243.18	10.501
243.39	8.010
243.61	14.037
243.82	12.379
244.03	11.928
244.24	7.075
244.46	11.757
244.67	12.133
244.88	14.583
245.09	16.034
245.31	11.755
245.52	15.136
245.73	20.323
245.95	26.217
246.16	15.669
246.37	14.262
246.58	16.129
246.80	10.897
247.01	10.846
247.22	10.116
247.43	6.715
247.65	10.008
247.86	9.417
248.07	9.061
248.28	10.253
248.50	8.452
248.71	9.550
248.92	7.702
249.13	9.147
249.35	8.429
249.56	9.317
249.77	13.096
249.98	11.158
250.20	14.748
250.41	13.525
250.62	10.978
250.83	13.097
251.05	13.684
251.26	10.204
251.47	14.489
251.68	15.559
251.90	13.950
252.11	22.496
252.32	16.549
252.53	20.497
252.75	8.644
252.96	14.975
253.17	10.277
253.38	11.401
253.59	11.806
253.81	15.411
254.02	12.811
254.23	10.302
254.44	14.358
254.66	12.781
254.87	13.099
255.08	16.083
255.29	23.339
255.50	19.597
255.72	17.034
255.93	17.662
256.14	22.128
256.35	12.963
256.57	16.728
256.78	21.670
256.99	10.165
257.20	15.876
257.41	18.857
257.63	20.000
257.84	18.512
258.05	19.199
258.26	17.657
258.47	11.920
258.69	16.782
258.90	8.425
259.11	12.611
259.32	14.642
259.53	10.118
259.75	6.261
259.96	9.329
260.17	7.437
260.38	10.179
260.59	6.554
260.81	4.570
261.02	8.140
261.23	8.107
261.44	6.300
261.65	8.198
261.87	7.590
262.08	8.378
262.29	6.420
262.50	9.725
262.71	5.043
262.92	7.885
263.14	9.658
263.35	10.214
263.56	8.958
263.77	10.994
263.98	10.884
264.20	11.806
264.41	12.514
264.62	12.515
264.83	9.353
265.04	17.647
265.25	16.563
265.47	13.174
265.68	15.578
265.89	14.267
266.10	4.943
266.31	13.986
266.52	4.675
266.74	9.705
266.95	14.130
267.16	13.857
267.37	6.277
267.58	10.123
267.79	11.636
268.01	9.172
268.22	7.143
268.43	9.123
268.64	6.261
268.85	10.111
269.06	9.840
269.27	13.069
269.49	9.288
269.70	8.077
269.91	10.183
270.12	11.142
270.33	9.498
270.54	9.886
270.75	4.144
270.97	8.632
271.18	10.100
271.39	7.807
271.60	9.520
271.81	6.777
272.02	9.119
272.23	8.224
272.45	9.172
272.66	8.705
272.87	11.883
273.08	7.269
273.29	10.090
273.50	4.783
273.71	7.753
273.92	6.837
274.14	9.439
274.35	6.504
274.56	9.005
274.77	10.726
274.98	11.701
275.19	8.851
275.40	9.228
275.61	9.542
275.83	13.140
276.04	7.782
276.25	9.291
276.46	8.259
276.67	9.853
276.88	9.464
277.09	10.513
277.30	10.929
277.51	8.748
277.73	9.628
277.94	9.958
278.15	8.576
278.36	13.823
278.57	7.441
278.78	7.726
278.99	6.514
279.20	6.806
279.41	12.205
279.62	8.666
279.84	10.911
280.05	9.123
280.26	7.858
280.47	5.434
280.68	5.846
280.89	6.735
281.10	10.147
281.31	10.234
281.52	9.677
281.73	7.187
281.94	5.485
282.16	8.561
282.37	9.038
282.58	5.240
282.79	8.861
283.00	9.479
283.21	4.225
283.42	6.369
283.63	6.993
283.84	6.300
284.05	6.327
284.26	6.365
284.47	8.496
284.68	9.103
284.89	5.400
285.11	6.420
285.32	7.652
285.53	8.190
285.74	7.630
285.95	7.744
286.16	7.081
286.37	9.631
286.58	6.348
286.79	5.430
287.00	4.755
287.21	6.724
287.42	7.261
287.63	4.447
287.84	5.464
288.05	4.979
288.26	6.159
288.48	9.994
288.69	6.500
288.90	3.667
289.11	8.690
289.32	6.180
289.53	8.214
289.74	8.110
289.95	4.197
290.16	9.379
290.37	4.127
290.58	6.797
290.79	7.127
291.00	2.906
291.21	8.213
291.42	7.333
291.63	4.685
291.84	8.198
292.05	5.503
292.26	3.718
292.47	6.450
292.68	4.841
292.89	8.529
293.10	8.822
293.31	6.002
293.52	6.765
293.73	5.386
293.94	7.190
294.15	5.548
294.36	5.309
294.57	8.781
294.79	5.230
295.00	5.842
295.21	6.520
295.42	6.753
295.63	8.981
295.84	6.289
296.05	7.857
296.26	5.776
296.47	7.604
296.68	5.727
296.89	6.456
297.10	5.806
297.31	5.976
297.52	2.985
297.73	5.799
297.94	5.546
298.15	4.843
298.36	3.914
298.57	4.048
298.78	5.325
298.99	3.404
299.20	4.385
299.41	5.781
299.62	5.882
299.83	5.248
300.04	3.762
300.25	7.345
300.46	5.002
300.67	8.271
300.88	7.070
301.09	4.467
301.30	7.204
301.50	7.348
301.71	9.569
301.92	8.799
302.13	6.302
302.34	3.427
302.55	6.145
302.76	5.285
302.97	5.065
303.18	5.902
303.39	3.607
303.60	5.682
303.81	7.202
304.02	6.050
304.23	6.524
304.44	4.470
304.65	5.766
304.86	6.748
305.07	5.585
305.28	7.556
305.49	6.348
305.70	5.654
305.91	5.969
306.12	6.400
306.33	4.626
306.54	4.862
306.75	4.837
306.96	4.963
307.17	4.300
307.38	9.952
307.58	5.552
307.79	6.064
308.00	4.978
308.21	5.483
308.42	6.897
308.63	6.534
308.84	5.061
309.05	2.241
309.26	4.036
309.47	6.941
309.68	4.873
309.89	7.093
310.10	3.382
310.31	8.103
310.52	2.759
310.73	5.210
310.94	6.507
311.14	3.189
311.35	5.417
311.56	4.060
311.77	2.706
311.98	3.853
312.19	5.484
312.40	6.982
312.61	5.759
312.82	4.441
313.03	5.689
313.24	7.924
313.45	5.128
313.66	5.377
313.86	4.222
314.07	4.784
314.28	6.468
314.49	7.937
314.70	7.054
314.91	7.340
315.12	7.063
315.33	7.179
315.54	5.006
315.75	4.348
315.96	4.191
316.16	3.770
316.37	6.236
316.58	4.586
316.79	5.642
317.00	5.709
317.21	5.437
317.42	3.723
317.63	4.923
317.84	6.037
318.05	5.664
318.25	5.999
318.46	2.757
318.67	6.209
318.88	3.531
319.09	7.679
319.30	6.232
319.51	5.462
319.72	6.739
319.93	5.306
320.13	4.493
320.34	5.269
320.55	5.644
320.76	8.373
320.97	3.886
321.18	8.403
321.39	5.784
321.60	5.563
321.80	6.319
322.01	7.647
322.22	6.971
322.43	3.722
322.64	5.469
322.85	7.229
323.06	5.681
323.27	5.576
323.47	4.512
323.68	8.437
323.89	6.518
324.10	6.054
324.31	7.743
324.52	6.496
324.73	8.906
324.93	6.889
325.14	5.603
325.35	4.699
325.56	5.982
325.77	4.900
325.98	4.805
326.19	7.496
326.39	4.195
326.60	2.686
326.81	4.369
327.02	3.740
327.23	2.006
327.44	7.734
327.64	4.337
327.85	5.716
328.06	3.785
328.27	5.043
328.48	7.510
328.69	5.103
328.90	6.622
329.10	1.734
329.31	7.042
329.52	6.585
329.73	9.111
329.94	5.315
330.15	5.497
330.35	5.368
330.56	6.170
330.77	6.179
330.98	6.422
331.19	3.561
331.39	5.562
331.60	5.565
331.81	5.303
332.02	5.684
332.23	7.784
332.44	5.024
332.64	6.721
332.85	6.883
333.06	4.181
333.27	3.687
333.48	4.031
333.68	4.730
333.89	2.099
334.10	6.590
334.31	6.866
334.52	5.440
334.72	4.095
334.93	6.360
335.14	5.115
335.35	7.696
335.56	6.247
335.76	4.020
335.97	4.973
336.18	3.005
336.39	4.954
336.60	6.583
336.80	5.809
337.01	3.440
337.22	4.706
337.43	5.141
337.64	4.940
337.84	3.651
338.05	4.681
338.26	5.309
338.47	4.727
338.68	4.832
338.88	5.289
339.09	5.553
339.30	7.005
339.51	4.092
339.71	5.134
339.92	3.529
340.13	4.465
340.34	3.625
340.55	5.039
340.75	4.684
340.96	3.085
341.17	4.935
341.38	4.973
341.58	7.458
341.79	2.807
342.00	4.074
342.21	3.178
342.41	4.651
342.62	3.673
342.83	4.450
343.04	5.268
343.24	5.051
343.45	3.688
343.66	6.608
343.87	4.569
344.07	7.305
344.28	6.055
344.49	6.866
344.70	4.439
344.90	4.167
345.11	5.373
345.32	4.852
345.53	3.549
345.73	5.119
345.94	4.440
346.15	4.864
346.36	3.837
346.56	3.800
346.77	4.167
346.98	4.039
347.19	4.301
347.39	4.641
347.60	3.690
347.81	7.382
348.02	4.511
348.22	4.456
348.43	4.149
348.64	2.622
348.84	2.349
349.05	2.820
349.26	5.190
349.47	2.500
349.67	4.121
349.88	4.530
350.09	5.263
350.30	3.945
350.50	6.305
350.71	7.447
350.92	3.345
351.12	4.908
351.33	3.922
351.54	4.170
351.74	2.872
351.95	3.070
352.16	5.596
352.37	5.451
352.57	5.676
352.78	6.201
352.99	1.390
353.19	5.491
353.40	3.898
353.61	4.530
353.82	4.760
354.02	3.884
354.23	5.460
354.44	6.822
354.64	4.123
354.85	7.088
355.06	3.667
355.26	3.669
355.47	2.668
355.68	4.313
355.88	2.691
356.09	3.408
356.30	2.998
356.51	5.078
356.71	5.203
356.92	4.092
357.13	3.954
357.33	6.083
357.54	4.963
357.75	3.568
357.95	4.949
358.16	4.630
358.37	5.176
358.57	5.108
358.78	4.698
358.99	3.941
359.19	3.808
359.40	4.819
359.61	4.153
359.81	6.148
360.02	5.748
360.23	4.713
360.43	2.800
360.64	4.562
360.85	3.855
361.05	3.777
361.26	2.946
361.47	3.102
361.67	3.283
361.88	2.547
362.09	3.313
362.29	2.513
362.50	2.465
362.70	2.415
362.91	4.784
363.12	3.750
363.32	3.174
363.53	3.568
363.74	2.799
363.94	4.137
364.15	4.505
364.36	4.179
364.56	2.938
364.77	4.595
364.98	5.138
365.18	4.250
365.39	4.063
365.59	2.841
365.80	3.913
366.01	5.156
366.21	4.133
366.42	3.732
366.63	4.452
366.83	2.674
367.04	2.641
367.24	4.123
367.45	5.432
367.66	2.271
367.86	3.743
368.07	4.001
368.28	3.935
368.48	4.491
368.69	2.761
368.89	3.266
369.10	3.839
369.31	5.289
369.51	3.745
369.72	5.641
369.92	4.857
370.13	4.987
370.34	3.295
370.54	1.069
370.75	5.073
370.95	2.372
371.16	4.817
371.37	3.368
371.57	3.037
371.78	3.389
371.98	3.379
372.19	4.938
372.40	3.605
372.60	3.785
372.81	5.388
373.01	2.683
373.22	3.242
373.43	4.868
373.63	3.996
373.84	5.188
374.04	4.118
374.25	3.465
374.46	5.206
374.66	4.244
374.87	5.344
375.07	2.199
375.28	2.831
375.48	3.376
375.69	4.173
375.90	4.420
376.10	2.074
376.31	3.142
376.51	3.765
376.72	3.921
376.92	4.366
377.13	4.726
377.34	4.429
377.54	3.629
377.75	4.890
377.95	2.639
378.16	4.696
378.36	5.369
378.57	3.331
378.77	3.662
378.98	2.147
379.19	4.168
379.39	4.410
379.60	3.167
379.80	2.695
380.01	4.067
380.21	4.497
380.42	3.825
380.62	4.708
380.83	5.140
381.04	2.535
381.24	3.232
381.45	3.460
381.65	3.658
381.86	4.105
382.06	4.948
382.27	3.191
382.47	3.226
382.68	2.918
382.88	4.283
383.09	4.866
383.29	2.954
383.50	4.659
383.71	5.251
383.91	3.591
384.12	4.107
384.32	4.585
384.53	4.274
384.73	4.416
384.94	3.566
385.14	2.782
385.35	4.488
385.55	3.901
385.76	4.067
385.96	4.332
386.17	3.052
386.37	3.667
386.58	3.042
386.78	5.042
386.99	3.129
387.19	5.358
387.40	4.272
387.60	6.989
387.81	3.737
388.01	4.731
388.22	5.739
388.42	5.100
388.63	5.005
388.83	6.029
389.04	4.085
389.24	4.011
389.45	4.173
389.65	3.629
389.86	4.949
390.06	4.286
390.27	3.827
390.47	4.199
390.68	3.562
390.88	6.617
391.09	6.087
391.29	7.343
391.50	4.114
391.70	6.597
391.91	4.686
392.11	5.690
392.32	6.732
392.52	6.304
392.73	4.871
392.93	6.882
393.14	5.370
393.34	7.610
393.55	7.846
393.75	8.033
393.95	6.363
394.16	7.403
394.36	9.044
394.57	8.273
394.77	6.642
394.98	6.561
395.18	7.542
395.39	7.262
395.59	7.337
395.80	8.229
396.00	6.873
396.21	9.453
396.41	5.280
396.61	9.658
396.82	8.491
397.02	11.853
397.23	8.693
397.43	8.782
397.64	7.942
397.84	11.396
398.05	5.656
398.25	9.436
398.45	7.472
398.66	9.605
398.86	8.047
399.07	10.498
399.27	8.710
399.48	10.753
399.68	7.489
399.89	10.062
400.09	9.039
400.29	8.759
400.50	9.465
400.70	11.187
400.91	8.317
401.11	9.850
401.32	9.761
401.52	8.478
401.72	8.526
401.93	13.731
402.13	10.412
402.34	12.128
402.54	10.366
402.75	12.435
402.95	6.953
403.15	12.497
403.36	8.069
403.56	12.110
403.77	9.696
403.97	11.518
404.17	10.907
404.38	13.259
404.58	9.894
404.79	13.014
404.99	12.126
405.19	12.125
405.40	10.899
405.60	13.650
405.81	11.373
406.01	12.793
406.21	12.246
406.42	12.607
406.62	13.156
406.83	14.078
407.03	13.573
407.23	11.958
407.44	10.856
407.64	13.863
407.85	12.951
408.05	12.273
408.25	11.773
408.46	13.944
408.66	12.836
408.87	13.481
409.07	11.139
409.27	12.161
409.48	11.869
409.68	13.646
409.88	10.497
410.09	14.710
410.29	13.127
410.50	15.392
410.70	9.717
410.90	14.629
411.11	12.011
411.31	12.986
411.51	12.581
411.72	14.621
411.92	12.443
412.12	12.581
412.33	11.058
412.53	13.514
412.74	10.373
412.94	14.280
413.14	11.786
413.35	13.006
413.55	12.615
413.75	15.035
413.96	11.149
414.16	13.333
414.36	14.095
414.57	14.779
414.77	10.828
414.97	14.516
415.18	12.257
415.38	13.738
415.58	13.661
415.79	13.650
415.99	12.759
416.19	15.066
416.40	13.274
416.60	14.217
416.80	13.276
417.01	15.039
417.21	11.968
417.41	16.341
417.62	16.022
417.82	16.002
418.02	13.315
418.23	17.102
418.43	14.885
418.63	15.871
418.84	15.726
419.04	16.262
419.24	15.866
419.45	16.790
419.65	16.072
419.85	16.637
420.06	16.463
420.26	17.088
420.46	16.720
420.67	16.349
420.87	16.592
421.07	17.070
421.28	16.876
421.48	17.025
421.68	16.806
421.88	17.109
422.09	17.341
422.29	17.845
422.49	16.487
422.70	16.784
422.90	16.953
423.10	16.858
423.31	17.436
423.51	17.210
423.71	16.523
423.91	17.506
424.12	17.410
424.32	17.960
424.52	16.820
424.73	16.976
424.93	17.186
425.13	17.436
425.33	17.135
425.54	18.103
425.74	17.267
425.94	17.643
426.15	17.997
426.35	18.120
426.55	18.072
426.75	17.879
426.96	17.790
427.16	17.358
427.36	18.135
427.57	18.191
427.77	17.634
427.97	18.634
428.17	17.827
428.38	18.910
428.58	15.816
428.78	17.884
428.98	16.775
429.19	18.129
429.39	15.420
429.59	17.835
429.79	15.785
430.00	17.965
430.20	16.235
430.40	18.138
430.60	16.901
430.81	18.819
431.01	17.619
431.21	18.605
431.41	16.474
431.62	18.705
431.82	17.144
432.02	19.137
432.22	18.292
432.43	17.861
432.63	17.625
432.83	19.211
433.03	18.684
433.24	20.050
433.44	18.606
433.64	20.261
433.84	19.351
434.05	19.933
434.25	19.808
434.45	20.935
434.65	21.222
434.85	21.192
435.06	20.210
435.26	21.128
435.46	20.785
435.66	21.046
435.87	20.930
436.07	21.212
436.27	21.325
436.47	20.535
436.67	20.230
436.88	21.156
437.08	21.737
437.28	21.218
437.48	21.353
437.69	22.169
437.89	21.565
438.09	22.131
438.29	21.154
438.49	22.204
438.70	21.721
438.90	22.057
439.10	21.753
439.30	22.103
439.50	21.036
439.71	22.535
439.91	22.257
440.11	23.321
440.31	22.155
440.51	23.046
440.72	23.347
440.92	22.964
441.12	23.099
441.32	23.012
441.52	23.131
441.72	23.485
441.93	23.421
442.13	24.364
442.33	23.500
442.53	23.673
442.73	23.949
442.94	24.051
443.14	24.721
443.34	24.243
443.54	24.354
443.74	25.269
443.94	25.142
444.15	24.939
444.35	24.842
444.55	24.627
444.75	24.966
444.95	24.568
445.15	23.705
445.36	24.935
445.56	23.991
445.76	24.301
445.96	24.509
446.16	24.920
446.36	24.955
446.57	24.511
446.77	24.266
446.97	25.244
447.17	25.467
447.37	24.637
447.57	25.153
447.77	24.898
447.98	25.307
448.18	25.741
448.38	25.718
448.58	25.784
448.78	26.173
448.98	26.233
449.18	25.793
449.39	25.389
449.59	25.441
449.79	25.950
449.99	26.427
450.19	26.288
450.39	26.373
450.59	25.699
450.79	25.735
451.00	25.801
451.20	27.390
451.40	26.109
451.60	25.673
451.80	26.086
452.00	26.203
452.20	26.666
452.40	26.589
452.61	26.593
452.81	26.522
453.01	25.900
453.21	25.791
453.41	26.418
453.61	26.127
453.81	27.098
454.01	27.369
454.21	26.107
454.42	26.116
454.62	26.683
454.82	26.700
455.02	25.415
455.22	27.379
455.42	27.015
455.62	26.508
455.82	26.472
456.02	27.689
456.23	26.795
456.43	27.783
456.63	27.864
456.83	25.965
457.03	26.223
457.23	26.357
457.43	27.784
457.63	26.813
457.83	26.411
458.03	27.150
458.23	27.134
458.43	26.499
458.64	26.875
458.84	27.482
459.04	27.077
459.24	27.574
459.44	27.198
459.64	25.997
459.84	27.128
460.04	26.700
460.24	27.390
460.44	27.152
460.64	27.459
460.84	27.463
461.04	26.791
461.24	28.149
461.45	26.937
461.65	27.345
461.85	28.552
462.05	28.874
462.25	28.404
462.45	28.715
462.65	28.617
462.85	27.943
463.05	28.316
463.25	28.213
463.45	28.134
463.65	28.082
463.85	27.933
464.05	29.184
464.25	28.051
464.45	28.079
464.65	28.578
464.85	28.111
465.05	28.184
465.26	29.436
465.46	28.017
465.66	28.546
465.86	27.438
466.06	28.355
466.26	28.137
466.46	28.721
466.66	29.445
466.86	28.928
467.06	29.789
467.26	30.049
467.46	28.890
467.66	29.156
467.86	29.512
468.06	29.517
468.26	29.025
468.46	29.069
468.66	30.287
468.86	29.688
469.06	30.408
469.26	29.861
469.46	29.678
469.66	30.578
469.86	30.471
470.06	30.121
470.26	31.295
470.46	30.238
470.66	30.858
470.86	30.478
471.06	31.394
471.26	30.263
471.46	30.924
471.66	30.710
471.86	30.641
472.06	31.431
