SpectraSuite Data File
++++++++++++++++++++++++++++++++++++
Date: Fri Sep 20 03:18:21 EST 2019
User: sgrac
Dark Spectrum Present: Yes
Reference Spectrum Present: Yes
Number of Sampled Component Spectra: 1
Spectrometers: USB4E01596
Integration Time (usec): 100000 (USB4E01596)
Spectra Averaged: 1 (USB4E01596)
Boxcar Smoothing: 0 (USB4E01596)
Correct for Electrical Dark: No (USB4E01596)
Strobe/Lamp Enabled: Yes (USB4E01596)
Correct for Detector Non-linearity: No (USB4E01596)
Correct for Stray Light: No (USB4E01596)
Number of Pixels in Processed Spectrum: 3648
>>>>>Begin Processed Spectral Data<<<<<
178.44	530.435
178.66	530.435
178.87	530.435
179.09	-370.000
179.30	233.333
179.52	492.857
179.74	3220.000
179.95	-448.571
180.17	-568.750
180.38	-725.000
180.60	-490.323
180.82	617.391
181.03	-2225.000
181.25	-1430.000
181.46	-1045.455
181.68	0.000
181.89	11400.000
182.11	1800.000
182.33	1184.615
182.54	-374.286
182.76	284.000
182.97	459.259
183.19	1588.889
183.40	-993.750
183.62	1092.857
183.84	-245.000
184.05	0.000
184.27	14200.000
184.48	700.000
184.70	5600.000
184.91	1030.769
185.13	427.273
185.34	342.593
185.56	-666.667
185.78	721.053
185.99	-7450.000
186.21	471.429
186.42	700.000
186.64	180.597
186.85	246.914
187.07	658.333
187.28	-327.027
187.50	-550.000
187.72	239.063
187.93	15600.000
188.15	722.727
188.36	223.077
188.58	664.706
188.79	7500.000
189.01	402.941
189.22	1083.333
189.44	312.766
189.65	-730.000
189.87	657.143
190.09	380.556
190.30	-2880.000
190.52	414.634
190.73	529.630
190.95	-1069.231
191.16	-841.667
191.38	-486.957
191.59	1566.667
191.81	402.500
192.02	375.000
192.24	257.143
192.45	485.714
192.67	668.182
192.88	0.000
193.10	388.235
193.31	-1040.000
193.53	356.818
193.74	307.895
193.96	1930.000
194.18	286.957
194.39	240.000
194.61	516.667
194.82	468.966
195.04	1191.667
195.25	268.085
195.47	915.789
195.68	-1180.000
195.90	3525.000
196.11	3275.000
196.33	-381.481
196.54	610.345
196.76	271.111
196.97	877.778
197.19	-566.667
197.40	433.333
197.62	-721.429
197.83	993.333
198.05	378.947
198.26	681.818
198.48	1475.000
198.69	440.000
198.91	1900.000
199.12	357.500
199.34	286.154
199.55	-1063.636
199.77	760.000
199.98	2340.000
200.20	1345.455
200.41	515.152
200.63	-2620.000
200.84	460.976
201.06	-12500.000
201.27	823.529
201.49	301.639
201.70	852.941
201.91	962.500
202.13	720.000
202.34	3675.000
202.56	1742.857
202.77	-2250.000
202.99	1026.667
203.20	628.571
203.42	-389.286
203.63	490.323
203.85	-620.833
204.06	3066.667
204.28	-2200.000
204.49	2185.714
204.71	220.833
204.92	1500.000
205.14	0.000
205.35	900.000
205.56	489.286
205.78	523.077
205.99	362.162
206.21	510.345
206.42	2366.667
206.64	-378.049
206.85	866.667
207.07	800.000
207.28	463.333
207.50	-1250.000
207.71	432.558
207.93	7700.000
208.14	-291.892
208.35	520.690
208.57	-856.250
208.78	489.655
209.00	284.211
209.21	0.000
209.43	569.565
209.64	383.721
209.86	1942.857
210.07	963.636
210.28	478.571
210.50	3080.000
210.71	361.538
210.93	384.211
211.14	303.279
211.36	385.714
211.57	2112.500
211.78	-563.636
212.00	530.769
212.21	-657.895
212.43	506.452
212.64	314.286
212.86	467.857
213.07	521.429
213.29	256.579
213.50	-335.294
213.71	-10600.000
213.93	-1577.778
214.14	773.333
214.36	-2314.286
214.57	217.442
214.78	348.571
215.00	-4933.333
215.21	-1566.667
215.43	-390.909
215.64	768.750
215.86	-3275.000
216.07	657.143
216.28	266.129
216.50	365.957
216.71	-2680.000
216.93	1114.286
217.14	419.444
217.35	257.895
217.57	-740.000
217.78	1463.636
218.00	350.000
218.21	237.705
218.42	300.000
218.64	331.111
218.85	324.138
219.07	322.000
219.28	728.571
219.49	-1118.182
219.71	457.143
219.92	2133.333
220.14	5366.667
220.35	4000.000
220.56	860.000
220.78	242.857
220.99	2550.000
221.21	443.243
221.42	433.333
221.63	450.000
221.85	9000.000
222.06	448.276
222.28	780.000
222.49	10200.000
222.70	-3533.333
222.92	323.214
223.13	169.565
223.34	260.000
223.56	289.189
223.77	875.000
223.99	196.154
224.20	153.153
224.41	374.419
224.63	341.176
224.84	440.000
225.05	239.583
225.27	296.296
225.48	241.772
225.69	281.818
225.91	190.909
226.12	304.839
226.34	202.899
226.55	206.250
226.76	180.597
226.98	160.526
227.19	390.000
227.40	142.857
227.62	152.703
227.83	193.684
228.04	214.815
228.26	79.630
228.47	95.833
228.69	68.681
228.90	73.596
229.11	55.172
229.33	53.689
229.54	70.204
229.75	58.935
229.97	39.865
230.18	38.043
230.39	45.000
230.61	43.789
230.82	43.464
231.03	35.770
231.25	47.965
231.46	48.254
231.67	52.432
231.89	59.559
232.10	58.015
232.31	53.023
232.53	77.220
232.74	50.820
232.95	64.322
233.17	52.381
233.38	52.315
233.59	78.235
233.81	77.434
234.02	52.217
234.23	74.731
234.45	83.444
234.66	56.931
234.87	96.512
235.09	54.222
235.30	64.516
235.51	74.138
235.73	57.812
235.94	62.724
236.15	59.701
236.36	62.447
236.58	58.996
236.79	56.757
237.00	61.446
237.22	70.690
237.43	69.259
237.64	87.727
237.86	76.961
238.07	51.394
238.28	52.778
238.50	50.413
238.71	47.872
238.92	62.132
239.13	50.893
239.35	62.673
239.56	32.420
239.77	81.423
239.99	60.938
240.20	68.705
240.41	46.708
240.63	41.231
240.84	39.308
241.05	40.171
241.26	43.314
241.48	39.043
241.69	27.540
241.90	40.000
242.12	26.358
242.33	29.848
242.54	22.504
242.75	24.474
242.97	24.929
243.18	16.348
243.39	16.408
243.61	22.042
243.82	17.718
244.03	14.578
244.24	14.269
244.46	13.738
244.67	22.933
244.88	22.526
245.09	22.504
245.31	20.695
245.52	21.259
245.73	30.000
245.95	35.393
246.16	25.528
246.37	21.477
246.58	21.352
246.80	24.414
247.01	14.779
247.22	11.591
247.43	15.245
247.65	13.208
247.86	11.061
248.07	10.900
248.28	10.386
248.50	10.566
248.71	11.768
248.92	6.584
249.13	9.147
249.35	10.317
249.56	12.698
249.77	16.124
249.98	15.588
250.20	18.554
250.41	15.521
250.62	16.739
250.83	16.279
251.05	19.868
251.26	16.797
251.47	23.153
251.68	18.278
251.90	24.922
252.11	25.123
252.32	20.226
252.53	27.019
252.75	14.229
252.96	20.051
253.17	15.473
253.38	21.378
253.59	17.473
253.81	19.749
254.02	16.845
254.23	19.095
254.44	18.043
254.66	16.011
254.87	18.051
255.08	31.369
255.29	28.905
255.50	23.626
255.72	29.860
255.93	31.095
256.14	26.596
256.35	29.398
256.57	26.838
256.78	30.248
256.99	21.277
257.20	28.660
257.41	30.476
257.63	23.810
257.84	25.408
258.05	26.878
258.26	21.562
258.47	25.851
258.69	21.775
258.90	14.917
259.11	11.465
259.32	21.807
259.53	13.065
259.75	15.952
259.96	13.030
260.17	11.487
260.38	9.091
260.59	8.960
260.81	8.333
261.02	8.645
261.23	5.485
261.44	8.619
261.65	8.503
261.87	7.998
262.08	9.552
262.29	11.278
262.50	10.365
262.71	8.523
262.92	13.116
263.14	11.026
263.35	14.485
263.56	15.871
263.77	12.791
263.98	16.487
264.20	15.112
264.41	19.403
264.62	17.546
264.83	17.667
265.04	22.941
265.25	19.178
265.47	21.317
265.68	20.226
265.89	19.409
266.10	16.603
266.31	17.483
266.52	12.078
266.74	8.722
266.95	18.804
267.16	16.397
267.37	10.426
267.58	16.871
267.79	14.545
268.01	10.329
268.22	12.206
268.43	13.729
268.64	11.360
268.85	19.195
269.06	16.232
269.27	13.744
269.49	10.460
269.70	16.155
269.91	13.486
270.12	11.326
270.33	14.521
270.54	10.932
270.75	11.602
270.97	13.223
271.18	14.741
271.39	14.369
271.60	12.417
271.81	9.470
272.02	11.458
272.23	9.224
272.45	8.506
272.66	11.607
272.87	12.578
273.08	8.644
273.29	8.846
273.50	8.610
273.71	10.184
273.92	6.454
274.14	12.343
274.35	11.140
274.56	11.290
274.77	13.724
274.98	10.610
275.19	9.217
275.40	12.632
275.61	10.085
275.83	14.959
276.04	10.126
276.25	13.529
276.46	12.522
276.67	12.965
276.88	10.302
277.09	16.556
277.30	12.572
277.51	14.751
277.73	12.584
277.94	11.381
278.15	9.434
278.36	13.823
278.57	10.786
278.78	7.024
278.99	10.739
279.20	13.612
279.41	14.226
279.62	14.613
279.84	13.316
280.05	13.198
280.26	13.565
280.47	13.146
280.68	10.646
280.89	13.629
281.10	13.584
281.31	10.313
281.52	12.903
281.73	10.625
281.94	6.461
282.16	15.203
282.37	13.738
282.58	10.480
282.79	9.494
283.00	11.781
283.21	6.774
283.42	9.553
283.63	9.216
283.84	11.870
284.05	8.263
284.26	9.908
284.47	11.126
284.68	10.858
284.89	8.393
285.11	9.728
285.32	11.933
285.53	8.436
285.74	10.309
285.95	7.631
286.16	6.754
286.37	8.240
286.58	6.972
286.79	6.787
287.00	6.225
287.21	9.353
287.42	5.658
287.63	6.872
287.84	8.064
288.05	8.581
288.26	8.482
288.48	10.329
288.69	7.255
288.90	8.789
289.11	12.262
289.32	8.302
289.53	8.276
289.74	10.671
289.95	10.911
290.16	10.817
290.37	8.140
290.58	8.301
290.79	7.692
291.00	8.607
291.21	8.964
291.42	6.844
291.63	8.433
291.84	7.003
292.05	8.466
292.26	6.104
292.47	7.607
292.68	6.974
292.89	8.412
293.10	9.063
293.31	6.188
293.52	8.615
293.73	8.631
293.94	7.718
294.15	8.088
294.36	10.013
294.57	9.349
294.79	8.095
295.00	9.571
295.21	9.467
295.42	7.634
295.63	11.687
295.84	7.422
296.05	10.529
296.26	6.942
296.47	7.448
296.68	6.133
296.89	8.659
297.10	9.032
297.31	6.396
297.52	5.337
297.73	5.710
297.94	6.012
298.15	6.747
298.36	5.072
298.57	5.050
298.78	7.101
298.99	5.366
299.20	4.713
299.41	6.535
299.62	6.536
299.83	7.310
300.04	5.297
300.25	9.194
300.46	7.628
300.67	8.696
300.88	6.854
301.09	5.544
301.30	9.034
301.50	8.360
301.71	8.394
301.92	10.773
302.13	7.529
302.34	7.995
302.55	7.933
302.76	7.433
302.97	7.597
303.18	9.364
303.39	7.272
303.60	8.373
303.81	9.740
304.02	8.086
304.23	9.296
304.44	6.124
304.65	6.306
304.86	10.122
305.07	7.962
305.28	9.616
305.49	9.785
305.70	9.366
305.91	7.504
306.12	7.835
306.33	5.219
306.54	8.143
306.75	10.097
306.96	11.397
307.17	7.089
307.38	10.612
307.58	7.823
307.79	13.258
308.00	8.870
308.21	6.604
308.42	6.527
308.63	7.281
308.84	9.250
309.05	7.874
309.26	6.884
309.47	10.666
309.68	7.472
309.89	9.887
310.10	5.797
310.31	9.411
310.52	4.599
310.73	6.814
310.94	8.006
311.14	3.533
311.35	5.699
311.56	5.503
311.77	6.193
311.98	5.466
312.19	5.439
312.40	5.191
312.61	7.417
312.82	7.326
313.03	9.022
313.24	11.260
313.45	5.176
313.66	7.249
313.86	6.562
314.07	8.142
314.28	5.749
314.49	7.991
314.70	7.270
314.91	10.164
315.12	6.730
315.33	10.854
315.54	6.152
315.75	8.181
315.96	7.392
316.16	7.715
316.37	7.390
316.58	8.398
316.79	9.106
317.00	10.684
317.21	6.883
317.42	5.701
317.63	10.475
317.84	6.934
318.05	6.667
318.25	10.309
318.46	7.869
318.67	8.836
318.88	8.829
319.09	7.737
319.30	9.548
319.51	8.103
319.72	10.048
319.93	11.137
320.13	9.318
320.34	8.407
320.55	9.179
320.76	11.566
320.97	4.195
321.18	8.595
321.39	7.400
321.60	8.091
321.80	11.090
322.01	8.101
322.22	7.161
322.43	7.382
322.64	10.006
322.85	7.609
323.06	8.919
323.27	7.143
323.47	9.147
323.68	11.563
323.89	5.813
324.10	9.641
324.31	9.181
324.52	8.946
324.73	8.530
324.93	8.691
325.14	8.164
325.35	7.508
325.56	7.378
325.77	7.550
325.98	7.031
326.19	10.454
326.39	5.561
326.60	7.045
326.81	7.069
327.02	8.694
327.23	5.416
327.44	8.227
327.64	7.029
327.85	7.537
328.06	7.221
328.27	10.087
328.48	8.216
328.69	5.313
328.90	5.794
329.10	6.558
329.31	9.285
329.52	8.072
329.73	7.930
329.94	6.484
330.15	7.218
330.35	10.680
330.56	8.338
330.77	7.534
330.98	8.288
331.19	6.605
331.39	6.938
331.60	8.183
331.81	5.624
332.02	8.278
332.23	9.148
332.44	7.376
332.64	8.033
332.85	8.293
333.06	7.079
333.27	9.081
333.48	7.801
333.68	7.536
333.89	6.453
334.10	7.218
334.31	8.312
334.52	6.477
334.72	7.449
334.93	8.077
335.14	7.621
335.35	9.843
335.56	7.476
335.76	4.733
335.97	6.116
336.18	6.209
336.39	6.471
336.60	7.236
336.80	8.093
337.01	4.717
337.22	7.529
337.43	8.156
337.64	7.290
337.84	7.729
338.05	8.031
338.26	9.363
338.47	8.943
338.68	7.911
338.88	7.084
339.09	6.918
339.30	8.228
339.51	6.632
339.71	7.775
339.92	7.487
340.13	7.154
340.34	6.455
340.55	6.800
340.75	8.925
340.96	5.730
341.17	6.082
341.38	5.408
341.58	7.262
341.79	2.854
342.00	6.821
342.21	4.886
342.41	6.326
342.62	8.173
342.83	3.653
343.04	5.949
343.24	6.933
343.45	7.003
343.66	7.440
343.87	5.616
344.07	7.123
344.28	7.065
344.49	8.382
344.70	6.682
344.90	5.351
345.11	5.459
345.32	6.312
345.53	6.541
345.73	4.138
345.94	8.340
346.15	7.749
346.36	6.290
346.56	6.103
346.77	4.249
346.98	6.502
347.19	6.824
347.39	5.996
347.60	7.255
347.81	6.746
348.02	4.426
348.22	6.597
348.43	6.843
348.64	3.715
348.84	5.002
349.05	5.466
349.26	7.632
349.47	6.027
349.67	6.424
349.88	8.841
350.09	6.687
350.30	5.541
350.50	7.062
350.71	6.516
350.92	6.012
351.12	6.586
351.33	6.121
351.54	6.560
351.74	6.644
351.95	5.570
352.16	6.486
352.37	6.524
352.57	7.298
352.78	6.780
352.99	4.086
353.19	6.528
353.40	6.236
353.61	7.361
353.82	6.502
354.02	4.014
354.23	6.303
354.44	7.529
354.64	5.564
354.85	6.602
355.06	5.460
355.26	5.422
355.47	4.859
355.68	5.144
355.88	4.797
356.09	4.998
356.30	6.303
356.51	6.338
356.71	5.020
356.92	5.931
357.13	4.817
357.33	6.266
357.54	5.907
357.75	5.631
357.95	7.192
358.16	5.363
358.37	5.990
358.57	4.947
358.78	5.644
358.99	5.517
359.19	3.974
359.40	5.210
359.61	5.112
359.81	7.352
360.02	5.552
360.23	5.142
360.43	5.504
360.64	3.855
360.85	5.284
361.05	4.321
361.26	3.817
361.47	4.262
361.67	4.377
361.88	3.793
362.09	3.621
362.29	3.342
362.50	2.895
362.70	3.342
362.91	5.091
363.12	4.331
363.32	3.692
363.53	3.266
363.74	3.253
363.94	3.807
364.15	4.221
364.36	5.334
364.56	4.656
364.77	5.491
364.98	5.285
365.18	5.646
365.39	6.406
365.59	4.456
365.80	3.185
366.01	5.246
366.21	4.585
366.42	4.718
366.63	5.663
366.83	5.030
367.04	3.501
367.24	6.229
367.45	5.250
367.66	3.866
367.86	4.701
368.07	4.957
368.28	4.822
368.48	4.212
368.69	4.612
368.89	6.007
369.10	4.570
369.31	5.974
369.51	4.729
369.72	6.814
369.92	6.413
370.13	4.472
370.34	4.787
370.54	2.169
370.75	5.616
370.95	5.135
371.16	5.523
371.37	5.067
371.57	3.826
371.78	4.061
371.98	5.082
372.19	5.192
372.40	4.343
372.60	4.009
372.81	5.443
373.01	3.885
373.22	3.913
373.43	4.783
373.63	3.801
373.84	5.070
374.04	4.747
374.25	5.824
374.46	3.978
374.66	5.588
374.87	5.019
375.07	3.477
375.28	4.070
375.48	5.255
375.69	4.352
375.90	4.135
376.10	3.139
376.31	4.087
376.51	5.382
376.72	3.730
376.92	4.787
377.13	5.532
377.34	4.612
377.54	3.884
377.75	5.330
377.95	4.169
378.16	5.704
378.36	5.026
378.57	4.505
378.77	3.979
378.98	4.121
379.19	4.609
379.39	4.532
379.60	4.913
379.80	4.970
380.01	4.144
380.21	4.497
380.42	4.663
380.62	4.361
380.83	4.275
381.04	3.329
381.24	4.913
381.45	3.309
381.65	3.940
381.86	4.054
382.06	5.026
382.27	4.349
382.47	3.490
382.68	5.269
382.88	4.463
383.09	4.638
383.29	4.497
383.50	5.133
383.71	5.225
383.91	3.938
384.12	4.690
384.32	5.122
384.53	4.743
384.73	4.887
384.94	3.963
385.14	4.291
385.35	3.867
385.55	3.434
385.76	3.974
385.96	3.749
386.17	3.989
386.37	4.087
386.58	3.321
386.78	5.772
386.99	4.065
387.19	4.804
387.40	4.892
387.60	6.053
387.81	3.832
388.01	4.100
388.22	4.132
388.42	5.100
388.63	5.303
388.83	5.284
389.04	3.788
389.24	4.935
389.45	5.240
389.65	4.111
389.86	5.326
390.06	5.055
390.27	4.154
390.47	4.199
390.68	3.882
390.88	5.972
391.09	5.234
391.29	6.053
391.50	4.945
391.70	5.719
391.91	5.064
392.11	4.844
392.32	5.633
392.52	5.058
392.73	4.749
392.93	4.977
393.14	5.311
393.34	6.084
393.55	6.836
393.75	6.688
393.95	5.264
394.16	5.552
394.36	7.921
394.57	6.700
394.77	5.936
394.98	4.959
395.18	5.661
395.39	6.403
395.59	5.816
395.80	6.514
396.00	5.919
396.21	8.033
396.41	5.967
396.61	7.117
396.82	7.908
397.02	9.927
397.23	7.059
397.43	7.809
397.64	6.018
397.84	9.774
398.05	5.612
398.25	7.806
398.45	6.144
398.66	8.315
398.86	7.738
399.07	9.339
399.27	7.543
399.48	8.982
399.68	6.524
399.89	6.971
400.09	8.470
400.29	7.296
400.50	7.388
400.70	9.577
400.91	6.931
401.11	8.113
401.32	9.265
401.52	6.465
401.72	7.900
401.93	10.353
402.13	9.038
402.34	9.043
402.54	7.216
402.75	10.843
402.95	6.238
403.15	10.134
403.36	7.957
403.56	9.520
403.77	7.777
403.97	9.173
404.17	8.363
404.38	9.009
404.58	6.707
404.79	9.345
404.99	8.522
405.19	8.353
405.40	8.279
405.60	9.558
405.81	9.355
406.01	9.934
406.21	9.375
406.42	9.747
406.62	9.637
406.83	10.121
407.03	9.972
407.23	7.677
407.44	8.424
407.64	10.733
407.85	8.870
408.05	9.724
408.25	8.944
408.46	11.235
408.66	9.219
408.87	9.737
409.07	8.699
409.27	9.266
409.48	9.141
409.68	9.373
409.88	7.087
410.09	10.285
410.29	9.354
410.50	11.688
410.70	7.782
410.90	9.918
411.11	8.060
411.31	9.321
411.51	9.038
411.72	10.138
411.92	8.332
412.12	8.677
412.33	7.821
412.53	8.900
412.74	6.762
412.94	8.682
413.14	8.561
413.35	8.998
413.55	9.896
413.75	10.682
413.96	8.357
414.16	9.870
414.36	8.724
414.57	10.119
414.77	7.342
414.97	10.494
415.18	8.164
415.38	9.178
415.58	9.253
415.79	9.005
415.99	9.060
416.19	9.603
416.40	9.135
416.60	8.844
416.80	9.124
417.01	9.731
417.21	7.957
417.41	11.024
417.62	9.791
417.82	10.436
418.02	7.648
418.23	10.991
418.43	10.424
418.63	10.833
418.84	11.108
419.04	9.628
419.24	10.473
419.45	10.717
419.65	10.488
419.85	10.767
420.06	10.936
420.26	10.767
420.46	9.874
420.67	10.943
420.87	10.212
421.07	11.576
421.28	10.896
421.48	11.587
421.68	10.973
421.88	11.210
422.09	11.724
422.29	11.700
422.49	10.175
422.70	10.755
422.90	10.845
423.10	11.319
423.31	11.095
423.51	11.542
423.71	10.756
423.91	11.521
424.12	10.892
424.32	11.266
424.52	11.225
424.73	10.653
424.93	10.864
425.13	10.470
425.33	10.473
425.54	11.378
425.74	10.730
425.94	11.637
426.15	10.943
426.35	11.619
426.55	11.146
426.75	11.645
426.96	10.632
427.16	11.288
427.36	10.913
427.57	11.998
427.77	10.713
427.97	11.539
428.17	11.078
428.38	11.729
428.58	9.145
428.78	10.689
428.98	8.922
429.19	10.529
429.39	7.887
429.59	10.755
429.79	8.356
430.00	9.455
430.20	7.769
430.40	9.607
430.60	8.950
430.81	10.272
431.01	9.446
431.21	10.525
431.41	7.952
431.62	10.471
431.82	9.440
432.02	10.843
432.22	9.548
432.43	9.500
432.63	8.404
432.83	9.201
433.03	9.435
433.24	10.219
433.44	9.484
433.64	11.662
433.84	9.542
434.05	11.071
434.25	10.773
434.45	12.220
434.65	11.249
434.85	12.034
435.06	11.609
435.26	11.752
435.46	10.674
435.66	11.859
435.87	10.886
436.07	11.364
436.27	11.613
436.47	10.868
436.67	9.608
436.88	12.084
437.08	11.259
437.28	10.634
437.48	10.303
437.69	12.558
437.89	11.471
438.09	12.302
438.29	10.571
438.49	11.782
438.70	11.385
438.90	10.935
439.10	10.660
439.30	12.011
439.50	10.285
439.71	12.031
439.91	11.283
440.11	12.550
440.31	11.665
440.51	12.315
440.72	11.688
440.92	11.548
441.12	11.865
441.32	13.141
441.52	12.728
441.72	13.153
441.93	12.053
442.13	13.250
442.33	11.999
442.53	13.459
442.73	12.328
442.94	12.946
443.14	12.020
443.34	12.987
443.54	12.800
443.74	13.490
443.94	12.533
444.15	13.215
444.35	12.366
444.55	12.892
444.75	12.976
444.95	12.776
445.15	12.407
445.36	13.196
445.56	12.200
445.76	13.076
445.96	12.413
446.16	12.292
446.36	12.173
446.57	13.080
446.77	11.955
446.97	12.992
447.17	13.011
447.37	12.985
447.57	13.278
447.77	13.061
447.98	13.252
448.18	13.182
448.38	13.165
448.58	13.756
448.78	13.593
448.98	13.798
449.18	13.447
449.39	13.741
449.59	13.275
449.79	13.991
449.99	13.639
450.19	14.374
450.39	13.427
450.59	13.597
450.79	14.035
451.00	14.575
451.20	15.140
451.40	14.005
451.60	12.795
451.80	13.857
452.00	12.626
452.20	13.436
452.40	13.794
452.61	13.453
452.81	13.592
453.01	13.594
453.21	12.548
453.41	14.109
453.61	12.532
453.81	13.426
454.01	13.784
454.21	14.003
454.42	14.332
454.62	13.208
454.82	13.940
455.02	13.662
455.22	14.190
455.42	13.843
455.62	12.488
455.82	13.402
456.02	14.110
456.23	13.691
456.43	13.506
456.63	14.503
456.83	13.628
457.03	13.504
457.23	13.355
457.43	14.486
457.63	13.531
457.83	13.878
458.03	13.355
458.23	13.844
458.43	12.907
458.64	13.726
458.84	13.747
459.04	13.898
459.24	13.307
459.44	13.748
459.64	13.168
459.84	14.177
460.04	13.338
460.24	14.063
460.44	13.907
460.64	14.184
460.84	14.129
461.04	14.237
461.24	14.442
461.45	14.539
461.65	13.936
461.85	14.945
462.05	14.948
462.25	15.083
462.45	15.310
462.65	15.350
462.85	14.525
463.05	15.093
463.25	13.804
463.45	15.018
463.65	14.897
463.85	14.722
464.05	14.233
464.25	14.525
464.45	14.971
464.65	15.799
464.85	14.013
465.05	14.590
465.26	14.970
465.46	15.371
465.66	15.666
465.86	15.053
466.06	14.102
466.26	15.033
466.46	13.326
466.66	15.161
466.86	14.544
467.06	15.358
467.26	15.112
467.46	15.283
467.66	15.100
467.86	15.282
468.06	14.958
468.26	14.983
468.46	14.466
468.66	14.558
468.86	14.215
469.06	16.579
469.26	14.540
469.46	15.672
469.66	14.879
469.86	15.871
470.06	14.382
470.26	16.187
470.46	14.748
470.66	16.408
470.86	15.297
471.06	16.865
471.26	14.564
