SpectraSuite Data File
++++++++++++++++++++++++++++++++++++
Date: Fri Sep 20 03:59:39 EST 2019
User: sgrac
Dark Spectrum Present: Yes
Reference Spectrum Present: Yes
Number of Sampled Component Spectra: 1
Spectrometers: USB4E01596
Integration Time (usec): 100000 (USB4E01596)
Spectra Averaged: 1 (USB4E01596)
Boxcar Smoothing: 0 (USB4E01596)
Correct for Electrical Dark: No (USB4E01596)
Strobe/Lamp Enabled: Yes (USB4E01596)
Correct for Detector Non-linearity: No (USB4E01596)
Correct for Stray Light: No (USB4E01596)
Number of Pixels in Processed Spectrum: 3648
>>>>>Begin Processed Spectral Data<<<<<
178.44	643.478
178.66	643.478
178.87	643.478
179.09	-565.000
179.30	373.333
179.52	582.143
179.74	2820.000
179.95	-440.000
180.17	-787.500
180.38	-925.000
180.60	-519.355
180.82	626.087
181.03	-2750.000
181.25	-2020.000
181.46	-1572.727
181.68	0.000
181.89	15900.000
182.11	2187.500
182.33	1538.462
182.54	-422.857
182.76	326.000
182.97	555.556
183.19	2144.444
183.40	-900.000
183.62	1100.000
183.84	-215.000
184.05	0.000
184.27	16600.000
184.48	790.000
184.70	7650.000
184.91	1192.308
185.13	461.364
185.34	325.926
185.56	-695.238
185.78	742.105
185.99	-8000.000
186.21	485.714
186.42	1200.000
186.64	252.239
186.85	223.457
187.07	875.000
187.28	-348.649
187.50	-695.455
187.72	271.875
187.93	16100.000
188.15	722.727
188.36	303.846
188.58	864.706
188.79	7000.000
189.01	582.353
189.22	1341.667
189.44	391.489
189.65	-910.000
189.87	1200.000
190.09	513.889
190.30	-3360.000
190.52	504.878
190.73	755.556
190.95	-1453.846
191.16	-1125.000
191.38	-634.783
191.59	1888.889
191.81	370.000
192.02	412.500
192.24	323.810
192.45	422.857
192.67	686.364
192.88	0.000
193.10	497.059
193.31	-1470.000
193.53	365.909
193.74	489.474
193.96	2050.000
194.18	286.957
194.39	312.000
194.61	670.000
194.82	634.483
195.04	1325.000
195.25	444.681
195.47	910.526
195.68	-1430.000
195.90	3150.000
196.11	4500.000
196.33	-525.926
196.54	631.034
196.76	328.889
196.97	950.000
197.19	-927.778
197.40	636.111
197.62	-950.000
197.83	1026.667
198.05	568.421
198.26	440.909
198.48	1650.000
198.69	548.571
198.91	2100.000
199.12	445.000
199.34	298.462
199.55	-1081.818
199.77	840.000
199.98	2480.000
200.20	1518.182
200.41	433.333
200.63	-2800.000
200.84	446.341
201.06	-14000.000
201.27	1064.706
201.49	300.000
201.70	1064.706
201.91	1506.250
202.13	990.000
202.34	4225.000
202.56	1871.429
202.77	-2850.000
202.99	1120.000
203.20	885.714
203.42	-407.143
203.63	561.290
203.85	-729.167
204.06	5966.667
204.28	-2975.000
204.49	2614.286
204.71	368.750
204.92	1822.222
205.14	0.000
205.35	1026.667
205.56	589.286
205.78	546.154
205.99	394.595
206.21	665.517
206.42	2466.667
206.64	-360.976
206.85	1293.333
207.07	1261.538
207.28	573.333
207.50	-2100.000
207.71	469.767
207.93	7600.000
208.14	-364.865
208.35	541.379
208.57	-1087.500
208.78	555.172
209.00	457.895
209.21	0.000
209.43	704.348
209.64	309.302
209.86	2200.000
210.07	1400.000
210.28	628.571
210.50	3120.000
210.71	376.923
210.93	513.158
211.14	340.984
211.36	420.000
211.57	2275.000
211.78	-868.182
212.00	650.000
212.21	-852.632
212.43	458.065
212.64	414.286
212.86	578.571
213.07	664.286
213.29	286.842
213.50	-402.941
213.71	-13100.000
213.93	-1911.111
214.14	720.000
214.36	-2771.429
214.57	194.186
214.78	531.429
215.00	-5200.000
215.21	-2150.000
215.43	-403.030
215.64	1093.750
215.86	-3375.000
216.07	657.143
216.28	275.806
216.50	325.532
216.71	-2940.000
216.93	1435.714
217.14	461.111
217.35	211.842
217.57	-920.000
217.78	1754.545
218.00	263.636
218.21	280.328
218.42	332.653
218.64	351.111
218.85	353.448
219.07	380.000
219.28	700.000
219.49	-1390.909
219.71	435.714
219.92	3083.333
220.14	6100.000
220.35	5300.000
220.56	1146.667
220.78	282.540
220.99	2133.333
221.21	448.649
221.42	700.000
221.63	483.333
221.85	16200.000
222.06	462.069
222.28	785.000
222.49	15400.000
222.70	-5466.667
222.92	350.000
223.13	230.435
223.34	358.182
223.56	394.595
223.77	750.000
223.99	255.128
224.20	172.072
224.41	386.047
224.63	497.059
224.84	552.000
225.05	285.417
225.27	274.074
225.48	236.709
225.69	318.182
225.91	235.065
226.12	304.839
226.34	263.768
226.55	170.312
226.76	235.821
226.98	190.351
227.19	430.000
227.40	149.524
227.62	155.405
227.83	174.737
228.04	229.630
228.26	150.926
228.47	120.833
228.69	83.516
228.90	88.764
229.11	62.069
229.33	58.197
229.54	86.531
229.75	48.289
229.97	43.919
230.18	50.543
230.39	47.353
230.61	49.689
230.82	67.647
231.03	47.258
231.25	60.174
231.46	54.603
231.67	62.703
231.89	84.926
232.10	83.206
232.31	71.628
232.53	67.181
232.74	64.344
232.95	71.357
233.17	82.143
233.38	71.759
233.59	82.353
233.81	86.283
234.02	52.709
234.23	88.710
234.45	104.636
234.66	67.822
234.87	114.535
235.09	83.111
235.30	63.226
235.51	74.138
235.73	50.521
235.94	67.025
236.15	77.239
236.36	81.857
236.58	66.946
236.79	82.625
237.00	67.470
237.22	85.345
237.43	74.815
237.64	77.273
237.86	89.706
238.07	70.518
238.28	77.778
238.50	69.835
238.71	61.702
238.92	77.941
239.13	58.929
239.35	83.871
239.56	68.950
239.77	82.609
239.99	47.656
240.20	64.748
240.41	63.323
240.63	47.692
240.84	60.377
241.05	43.590
241.26	49.128
241.48	51.385
241.69	43.567
241.90	38.901
242.12	29.779
242.33	34.030
242.54	24.881
242.75	23.423
242.97	28.490
243.18	19.570
243.39	19.897
243.61	26.682
243.82	20.874
244.03	21.205
244.24	16.156
244.46	23.250
244.67	17.733
244.88	22.656
245.09	28.411
245.31	28.974
245.52	25.510
245.73	30.323
245.95	53.933
246.16	27.817
246.37	27.349
246.58	23.810
246.80	21.517
247.01	18.713
247.22	16.333
247.43	17.423
247.65	16.325
247.86	14.275
248.07	11.293
248.28	12.450
248.50	11.809
248.71	12.569
248.92	7.391
249.13	12.632
249.35	11.800
249.56	13.112
249.77	14.383
249.98	18.825
250.20	18.649
250.41	25.166
250.62	17.391
250.83	24.602
251.05	23.421
251.26	19.937
251.47	25.142
251.68	23.112
251.90	31.034
252.11	21.182
252.32	27.298
252.53	25.932
252.75	17.154
252.96	23.223
253.17	23.326
253.38	19.596
253.59	20.071
253.81	25.342
254.02	22.539
254.23	22.111
254.44	23.634
254.66	23.174
254.87	23.003
255.08	32.643
255.29	36.984
255.50	30.220
255.72	31.864
255.93	46.269
256.14	40.851
256.35	29.861
256.57	28.309
256.78	36.795
256.99	34.279
257.20	29.691
257.41	32.762
257.63	24.952
257.84	28.494
258.05	36.227
258.26	24.958
258.47	21.827
258.69	28.849
258.90	20.166
259.11	18.854
259.32	22.222
259.53	15.226
259.75	16.638
259.96	16.268
260.17	8.910
260.38	12.356
260.59	9.982
260.81	7.473
261.02	9.606
261.23	7.816
261.44	10.635
261.65	10.234
261.87	9.577
262.08	10.406
262.29	13.592
262.50	13.820
262.71	11.009
262.92	13.950
263.14	15.043
263.35	15.785
263.56	18.695
263.77	20.402
263.98	22.198
264.20	23.022
264.41	18.944
264.62	16.933
264.83	17.436
265.04	22.824
265.25	21.918
265.47	22.156
265.68	27.261
265.89	15.039
266.10	19.772
266.31	21.399
266.52	19.870
266.74	19.410
266.95	14.457
267.16	19.400
267.37	14.255
267.58	17.485
267.79	20.545
268.01	12.378
268.22	15.280
268.43	15.589
268.64	10.733
268.85	19.023
269.06	13.204
269.27	17.960
269.49	12.173
269.70	15.716
269.91	14.037
270.12	14.733
270.33	15.068
270.54	17.015
270.75	15.285
270.97	17.264
271.18	14.832
271.39	18.688
271.60	17.384
271.81	15.812
272.02	14.575
272.23	13.912
272.45	12.204
272.66	11.607
272.87	14.524
273.08	12.050
273.29	9.468
273.50	9.247
273.71	13.338
273.92	8.690
274.14	13.795
274.35	12.363
274.56	11.694
274.77	12.858
274.98	11.337
275.19	9.802
275.40	16.717
275.61	12.645
275.83	17.521
276.04	12.803
276.25	15.892
276.46	13.588
276.67	20.311
276.88	12.814
277.09	19.702
277.30	17.995
277.51	17.067
277.73	15.794
277.94	15.900
278.15	14.408
278.36	15.017
278.57	15.134
278.78	11.589
278.99	12.148
279.20	12.704
279.41	17.761
279.62	15.378
279.84	15.808
280.05	12.578
280.26	15.385
280.47	15.074
280.68	13.962
280.89	13.946
281.10	13.175
281.31	11.875
281.52	13.503
281.73	11.094
281.94	13.449
282.16	14.908
282.37	15.835
282.58	11.135
282.79	10.970
283.00	15.369
283.21	6.103
283.42	11.518
283.63	11.438
283.84	11.605
284.05	12.782
284.26	9.318
284.47	10.654
284.68	11.378
284.89	10.475
285.11	12.062
285.32	9.987
285.53	11.515
285.74	8.561
285.95	10.627
286.16	10.566
286.37	9.631
286.58	10.146
286.79	9.754
287.00	9.167
287.21	8.595
287.42	8.713
287.63	7.175
287.84	10.345
288.05	8.051
288.26	8.968
288.48	11.055
288.69	9.867
288.90	8.847
289.11	11.310
289.32	9.863
289.53	9.521
289.74	12.439
289.95	10.911
290.16	12.428
290.37	9.045
290.58	9.471
290.79	8.484
291.00	10.581
291.21	11.326
291.42	9.669
291.63	9.526
291.84	10.369
292.05	9.259
292.26	9.156
292.47	8.820
292.68	9.107
292.89	11.529
293.10	14.139
293.31	7.488
293.52	10.147
293.73	11.162
293.94	11.544
294.15	10.428
294.36	11.559
294.57	10.865
294.79	9.838
295.00	10.379
295.21	10.094
295.42	9.513
295.63	13.587
295.84	7.989
296.05	10.048
296.26	8.638
296.47	9.115
296.68	6.386
296.89	9.760
297.10	8.586
297.31	8.824
297.52	7.372
297.73	8.101
297.94	6.097
298.15	6.167
298.36	5.591
298.57	5.972
298.78	7.377
298.99	6.007
299.20	5.861
299.41	7.792
299.62	8.845
299.83	8.716
300.04	6.881
300.25	11.145
300.46	7.132
300.67	9.544
300.88	10.038
301.09	8.988
301.30	10.863
301.50	10.383
301.71	12.647
301.92	12.860
302.13	8.868
302.34	8.167
302.55	10.000
302.76	9.930
302.97	9.173
303.18	11.180
303.39	6.864
303.60	9.689
303.81	11.806
304.02	10.937
304.23	8.372
304.44	10.349
304.65	9.009
304.86	10.704
305.07	7.487
305.28	12.135
305.49	8.620
305.70	10.565
305.91	10.006
306.12	6.818
306.33	8.660
306.54	10.603
306.75	10.762
306.96	11.765
307.17	9.123
307.38	13.249
307.58	10.662
307.79	11.474
308.00	10.019
308.21	10.613
308.42	11.022
308.63	8.525
308.84	10.471
309.05	7.511
309.26	8.249
309.47	11.287
309.68	9.637
309.89	9.189
310.10	5.690
310.31	9.663
310.52	4.497
310.73	8.116
310.94	8.848
311.14	7.409
311.35	6.783
311.56	6.631
311.77	6.927
311.98	7.213
312.19	8.729
312.40	8.544
312.61	9.250
312.82	7.967
313.03	9.244
313.24	11.492
313.45	7.692
313.66	9.938
313.86	9.156
314.07	7.684
314.28	10.337
314.49	11.385
314.70	10.393
314.91	12.535
315.12	9.900
315.33	11.815
315.54	9.228
315.75	10.069
315.96	9.604
316.16	8.295
316.37	9.180
316.58	10.939
316.79	8.603
317.00	10.627
317.21	9.196
317.42	7.330
317.63	9.559
317.84	8.428
318.05	11.740
318.25	12.405
318.46	8.616
318.67	11.642
318.88	9.653
319.09	10.413
319.30	10.692
319.51	9.844
319.72	9.206
319.93	10.787
320.13	11.980
320.34	12.256
320.55	9.350
320.76	11.446
320.97	7.218
321.18	10.776
321.39	8.396
321.60	10.177
321.80	13.540
322.01	13.091
322.22	11.027
322.43	10.298
322.64	10.938
322.85	11.160
323.06	10.018
323.27	11.466
323.47	10.507
323.68	12.861
323.89	9.630
324.10	9.137
324.31	9.292
324.52	9.744
324.73	11.642
324.93	6.889
325.14	8.965
325.35	8.325
325.56	9.073
325.77	9.900
325.98	7.183
326.19	11.015
326.39	6.878
326.60	9.072
326.81	8.198
327.02	7.819
327.23	7.773
327.44	8.818
327.64	8.923
327.85	7.688
328.06	7.918
328.27	10.545
328.48	9.274
328.69	6.786
328.90	8.691
329.10	6.558
329.31	7.407
329.52	8.763
329.73	13.048
329.94	8.820
330.15	8.273
330.35	11.308
330.56	9.450
330.77	10.894
330.98	11.800
331.19	7.524
331.39	10.952
331.60	9.656
331.81	8.034
332.02	9.327
332.23	11.364
332.44	9.086
332.64	9.180
332.85	9.593
333.06	9.197
333.27	7.815
333.48	9.058
333.68	9.719
333.89	8.290
334.10	9.257
334.31	11.358
334.52	8.238
334.72	8.239
334.93	9.944
335.14	7.468
335.35	11.518
335.56	11.009
335.76	9.160
335.97	10.343
336.18	7.661
336.39	9.707
336.60	7.538
336.80	8.143
337.01	7.469
337.22	5.600
337.43	9.392
337.64	9.305
337.84	9.578
338.05	8.077
338.26	8.880
338.47	9.407
338.68	9.000
338.88	7.181
339.09	9.882
339.30	7.381
339.51	8.090
339.71	9.242
339.92	7.535
340.13	9.285
340.34	7.944
340.55	9.834
340.75	10.897
340.96	6.121
341.17	9.172
341.38	6.808
341.58	7.066
341.79	7.755
342.00	7.342
342.21	6.641
342.41	8.186
342.62	8.310
342.83	7.541
343.04	8.719
343.24	7.851
343.45	7.843
343.66	9.288
343.87	7.187
344.07	8.212
344.28	9.215
344.49	10.343
344.70	8.296
344.90	7.807
345.11	8.969
345.32	7.213
345.53	7.183
345.73	5.973
345.94	6.432
346.15	8.244
346.36	6.092
346.56	6.912
346.77	6.229
346.98	6.058
347.19	6.907
347.39	5.667
347.60	7.421
347.81	7.976
348.02	7.872
348.22	6.684
348.43	7.399
348.64	5.463
348.84	6.916
349.05	7.072
349.26	9.725
349.47	6.161
349.67	6.735
349.88	8.145
350.09	6.773
350.30	7.846
350.50	8.365
350.71	8.067
350.92	7.536
351.12	7.886
351.33	7.371
351.54	7.863
351.74	6.172
351.95	5.877
352.16	5.977
352.37	5.880
352.57	8.323
352.78	6.904
352.99	6.192
353.19	6.874
353.40	6.453
353.61	7.883
353.82	7.012
354.02	6.344
354.23	7.587
354.44	9.027
354.64	7.206
354.85	8.060
355.06	5.460
355.26	5.830
355.47	6.053
355.68	8.073
355.88	6.123
356.09	6.248
356.30	6.572
356.51	7.191
356.71	6.449
356.92	5.781
357.13	5.248
357.33	8.208
357.54	6.991
357.75	5.911
357.95	6.829
358.16	6.462
358.37	6.250
358.57	6.078
358.78	7.210
358.99	4.433
359.19	5.861
359.40	8.336
359.61	6.166
359.81	7.547
360.02	7.446
360.23	5.339
360.43	5.729
360.64	5.911
360.85	5.005
361.05	4.770
361.26	4.719
361.47	3.943
361.67	5.247
361.88	4.633
362.09	4.982
362.29	4.673
362.50	4.331
362.70	4.343
362.91	5.704
363.12	4.186
363.32	3.880
363.53	4.724
363.74	4.715
363.94	4.594
364.15	4.582
364.36	5.142
364.56	4.213
364.77	5.838
364.98	6.665
365.18	6.330
365.39	5.694
365.59	5.054
365.80	4.337
366.01	5.665
366.21	4.977
366.42	5.643
366.63	6.299
366.83	4.521
367.04	4.975
367.24	6.289
367.45	6.009
367.66	2.762
367.86	5.958
368.07	6.002
368.28	5.059
368.48	6.039
368.69	3.985
368.89	5.453
369.10	5.210
369.31	7.405
369.51	5.903
369.72	7.956
369.92	6.540
370.13	4.891
370.34	5.813
370.54	3.521
370.75	6.860
370.95	4.907
371.16	5.646
371.37	6.129
371.57	5.132
371.78	5.638
371.98	6.930
372.19	6.574
372.40	4.286
372.60	4.878
372.81	6.051
373.01	4.444
373.22	5.254
373.43	5.796
373.63	4.856
373.84	6.125
374.04	5.605
374.25	5.167
374.46	6.084
374.66	4.672
374.87	6.230
375.07	5.676
375.28	5.574
375.48	5.872
375.69	4.232
375.90	5.845
376.10	4.456
376.31	4.893
376.51	5.298
376.72	4.519
376.92	5.366
377.13	5.156
377.34	4.716
377.54	4.038
377.75	5.550
377.95	5.328
378.16	4.991
378.36	5.320
378.57	3.858
378.77	4.175
378.98	3.998
379.19	5.884
379.39	4.800
379.60	5.486
379.80	4.500
380.01	4.247
380.21	5.118
380.42	5.973
380.62	5.778
380.83	5.717
381.04	4.072
381.24	5.870
381.45	5.178
381.65	4.221
381.86	4.957
382.06	6.114
382.27	5.430
382.47	5.500
382.68	5.139
382.88	5.078
383.09	5.297
383.29	5.082
383.50	4.922
383.71	6.699
383.91	4.235
384.12	5.419
384.32	6.220
384.53	6.349
384.73	4.341
384.94	4.289
385.14	4.952
385.35	4.392
385.55	4.835
385.76	5.670
385.96	4.422
386.17	4.831
386.37	6.189
386.58	4.018
386.78	6.343
386.99	4.499
387.19	5.623
387.40	4.626
387.60	6.619
387.81	5.308
388.01	5.136
388.22	5.579
388.42	5.617
388.63	5.923
388.83	7.038
389.04	5.774
389.24	5.746
389.45	5.889
389.65	5.007
389.86	6.387
390.06	5.311
390.27	5.881
390.47	5.405
390.68	4.613
390.88	7.401
391.09	6.020
391.29	6.731
391.50	5.142
391.70	6.250
391.91	5.190
392.11	6.432
392.32	6.912
392.52	6.649
392.73	6.164
392.93	5.851
393.14	6.323
393.34	6.500
393.55	7.807
393.75	7.753
393.95	6.922
394.16	6.739
394.36	7.981
394.57	7.924
394.77	8.015
394.98	7.102
395.18	7.842
395.39	7.112
395.59	7.972
395.80	8.576
396.00	7.593
396.21	9.648
396.41	6.261
396.61	9.130
396.82	8.812
397.02	10.976
397.23	8.932
397.43	8.761
397.64	7.367
397.84	11.528
398.05	6.504
398.25	10.251
398.45	7.729
398.66	9.905
398.86	9.480
399.07	11.078
399.27	8.321
399.48	12.012
399.68	8.207
399.89	9.316
400.09	9.083
400.29	8.344
400.50	9.486
400.70	11.207
400.91	9.703
401.11	10.231
401.32	10.370
401.52	8.414
401.72	8.850
401.93	12.903
402.13	9.747
402.34	9.316
402.54	10.196
402.75	12.027
402.95	7.906
403.15	11.753
403.36	8.272
403.56	10.693
403.77	9.430
403.97	9.969
404.17	9.927
404.38	11.692
404.58	8.623
404.79	11.798
404.99	10.543
405.19	10.322
405.40	8.333
405.60	10.435
405.81	8.472
406.01	10.881
406.21	10.120
406.42	10.392
406.62	10.576
406.83	11.837
407.03	11.242
407.23	10.585
407.44	9.631
407.64	11.886
407.85	11.224
408.05	10.668
408.25	10.418
408.46	11.912
408.66	10.666
408.87	10.812
409.07	9.590
409.27	10.031
409.48	9.269
409.68	10.925
409.88	9.059
410.09	12.418
410.29	10.157
410.50	11.648
410.70	9.117
410.90	11.146
411.11	9.403
411.31	10.419
411.51	8.839
411.72	10.789
411.92	9.201
412.12	8.936
412.33	8.457
412.53	9.788
412.74	8.418
412.94	10.725
413.14	9.616
413.35	9.229
413.55	10.366
413.75	11.691
413.96	9.288
414.16	10.390
414.36	9.033
414.57	9.573
414.77	8.685
414.97	11.031
415.18	9.495
415.38	9.847
415.58	9.404
415.79	8.828
415.99	8.988
416.19	9.534
416.40	8.631
416.60	9.276
416.80	9.108
417.01	9.535
417.21	7.957
417.41	11.540
417.62	8.726
417.82	10.320
418.02	7.872
418.23	11.268
418.43	9.149
418.63	9.600
418.84	9.761
419.04	9.628
419.24	10.234
419.45	10.696
419.65	9.656
419.85	10.745
420.06	10.267
420.26	10.601
420.46	9.884
420.67	10.792
420.87	9.632
421.07	11.292
421.28	10.695
421.48	11.137
421.68	10.218
421.88	10.709
422.09	10.727
422.29	11.152
422.49	10.048
422.70	10.565
422.90	10.028
423.10	10.732
423.31	10.606
423.51	11.741
423.71	9.859
423.91	11.327
424.12	10.245
424.32	10.800
424.52	9.943
424.73	10.008
424.93	10.255
425.13	10.210
425.33	9.855
425.54	10.678
425.74	10.142
425.94	11.389
426.15	10.576
426.35	10.515
426.55	9.935
426.75	11.418
426.96	10.055
427.16	10.374
427.36	10.689
427.57	11.402
427.77	10.155
427.97	11.248
428.17	10.571
428.38	11.065
428.58	8.416
428.78	10.731
428.98	9.075
429.19	9.963
429.39	7.307
429.59	11.219
429.79	7.329
430.00	9.032
430.20	8.452
430.40	9.650
430.60	8.747
430.81	10.257
431.01	7.931
431.21	9.619
431.41	8.049
431.62	9.632
431.82	8.917
432.02	10.856
432.22	8.930
432.43	8.904
432.63	8.311
432.83	9.573
433.03	7.890
433.24	9.631
433.44	8.989
433.64	10.437
433.84	8.383
434.05	10.483
434.25	9.467
434.45	11.019
434.65	10.270
434.85	11.486
435.06	9.935
435.26	10.971
435.46	9.968
435.66	11.359
435.87	10.329
436.07	10.926
436.27	10.475
436.47	10.018
436.67	8.914
436.88	11.100
437.08	9.636
437.28	10.198
437.48	9.162
437.69	10.993
437.89	10.043
438.09	11.715
438.29	9.141
438.49	10.676
438.70	10.407
438.90	10.033
439.10	9.548
439.30	10.480
439.50	8.670
439.71	10.812
439.91	9.566
440.11	11.605
440.31	10.194
440.51	11.195
440.72	9.932
440.92	10.486
441.12	10.891
441.32	10.927
441.52	11.501
441.72	11.782
441.93	10.842
442.13	11.602
442.33	11.136
442.53	11.981
442.73	10.887
442.94	11.674
443.14	11.451
443.34	12.225
443.54	11.136
443.74	11.821
443.94	10.340
444.15	11.224
444.35	10.715
444.55	11.861
444.75	10.969
444.95	11.478
445.15	10.850
445.36	11.626
445.56	9.904
445.76	11.310
445.96	11.028
446.16	11.095
446.36	10.895
446.57	11.366
446.77	10.349
446.97	11.383
447.17	11.638
447.37	11.564
447.57	11.367
447.77	11.898
447.98	11.373
448.18	12.544
448.38	11.825
448.58	12.258
448.78	12.231
448.98	12.682
449.18	11.715
449.39	12.275
449.59	11.934
449.79	12.138
449.99	11.453
450.19	11.872
450.39	12.184
450.59	12.267
450.79	11.160
451.00	12.018
451.20	12.250
451.40	12.172
451.60	11.425
451.80	11.936
452.00	10.666
452.20	11.316
452.40	11.098
452.61	12.026
452.81	11.036
453.01	11.934
453.21	10.555
453.41	11.936
453.61	10.908
453.81	12.578
454.01	11.199
454.21	11.697
454.42	12.283
454.62	11.823
454.82	11.500
455.02	11.636
455.22	10.485
455.42	11.615
455.62	10.311
455.82	11.666
456.02	10.742
456.23	12.399
456.43	10.839
456.63	12.021
456.83	9.492
457.03	11.211
457.23	10.881
457.43	11.756
457.63	11.160
457.83	11.187
458.03	10.475
458.23	11.316
458.43	10.079
458.64	11.670
458.84	10.476
459.04	11.424
459.24	10.757
459.44	11.230
459.64	11.456
459.84	11.753
460.04	11.302
460.24	11.871
460.44	11.268
460.64	12.084
460.84	11.818
461.04	11.884
461.24	11.936
461.45	12.397
461.65	12.535
461.85	12.798
462.05	12.488
462.25	12.827
462.45	13.057
462.65	12.686
462.85	11.450
463.05	12.831
463.25	11.029
463.45	12.277
463.65	11.329
463.85	11.975
464.05	11.801
464.25	11.645
464.45	12.282
464.65	11.726
464.85	10.501
465.05	11.299
465.26	12.173
465.46	11.999
465.66	11.855
465.86	12.316
466.06	11.254
466.26	11.587
466.46	10.849
466.66	11.803
466.86	11.512
467.06	12.300
467.26	12.077
467.46	12.453
467.66	11.804
467.86	11.954
468.06	12.150
468.26	11.984
468.46	12.000
468.66	12.206
468.86	10.849
469.06	12.886
469.26	10.427
469.46	12.520
469.66	12.045
