SpectraSuite Data File
++++++++++++++++++++++++++++++++++++
Date: Fri Sep 20 04:05:42 EST 2019
User: sgrac
Dark Spectrum Present: Yes
Reference Spectrum Present: Yes
Number of Sampled Component Spectra: 1
Spectrometers: USB4E01596
Integration Time (usec): 100000 (USB4E01596)
Spectra Averaged: 1 (USB4E01596)
Boxcar Smoothing: 0 (USB4E01596)
Correct for Electrical Dark: No (USB4E01596)
Strobe/Lamp Enabled: Yes (USB4E01596)
Correct for Detector Non-linearity: No (USB4E01596)
Correct for Stray Light: No (USB4E01596)
Number of Pixels in Processed Spectrum: 3648
>>>>>Begin Processed Spectral Data<<<<<
178.44	595.652
178.66	595.652
178.87	595.652
179.09	-625.000
179.30	330.000
179.52	578.571
179.74	3100.000
179.95	-500.000
180.17	-981.250
180.38	-1300.000
180.60	-587.097
180.82	686.957
181.03	-3225.000
181.25	-1470.000
181.46	-1563.636
181.68	0.000
181.89	15700.000
182.11	1600.000
182.33	1400.000
182.54	-442.857
182.76	340.000
182.97	625.926
183.19	1966.667
183.40	-1025.000
183.62	1192.857
183.84	-310.000
184.05	0.000
184.27	16800.000
184.48	810.000
184.70	8850.000
184.91	1484.615
185.13	402.273
185.34	348.148
185.56	-752.381
185.78	836.842
185.99	-8450.000
186.21	514.286
186.42	1333.333
186.64	204.478
186.85	244.444
187.07	729.167
187.28	-372.973
187.50	-586.364
187.72	309.375
187.93	20200.000
188.15	827.273
188.36	348.077
188.58	794.118
188.79	8100.000
189.01	617.647
189.22	1475.000
189.44	423.404
189.65	-920.000
189.87	1471.429
190.09	497.222
190.30	-3680.000
190.52	470.732
190.73	588.889
190.95	-1138.462
191.16	-1100.000
191.38	-639.130
191.59	2111.111
191.81	425.000
192.02	427.500
192.24	315.873
192.45	497.143
192.67	854.545
192.88	0.000
193.10	550.000
193.31	-1260.000
193.53	372.727
193.74	494.737
193.96	1960.000
194.18	340.580
194.39	342.000
194.61	663.333
194.82	524.138
195.04	1475.000
195.25	351.064
195.47	1021.053
195.68	-1390.000
195.90	4325.000
196.11	4000.000
196.33	-588.889
196.54	720.690
196.76	326.667
196.97	927.778
197.19	-827.778
197.40	536.111
197.62	-1050.000
197.83	1086.667
198.05	534.211
198.26	690.909
198.48	1583.333
198.69	611.429
198.91	1685.714
199.12	387.500
199.34	307.692
199.55	-1118.182
199.77	900.000
199.98	2820.000
200.20	1309.091
200.41	557.576
200.63	-3200.000
200.84	500.000
201.06	-13900.000
201.27	1011.765
201.49	354.098
201.70	1223.529
201.91	1118.750
202.13	950.000
202.34	5075.000
202.56	2128.571
202.77	-2283.333
202.99	1026.667
203.20	738.095
203.42	-542.857
203.63	593.548
203.85	-545.833
204.06	4633.333
204.28	-4475.000
204.49	2114.286
204.71	306.250
204.92	1788.889
205.14	0.000
205.35	1146.667
205.56	585.714
205.78	456.410
205.99	416.216
206.21	631.034
206.42	2883.333
206.64	-397.561
206.85	1253.333
207.07	1223.077
207.28	610.000
207.50	-2225.000
207.71	437.209
207.93	9050.000
208.14	-313.514
208.35	551.724
208.57	-968.750
208.78	731.034
209.00	397.368
209.21	0.000
209.43	852.174
209.64	360.465
209.86	2000.000
210.07	1300.000
210.28	621.429
210.50	3460.000
210.71	397.436
210.93	465.789
211.14	345.902
211.36	500.000
211.57	2512.500
211.78	-736.364
212.00	611.538
212.21	-652.632
212.43	603.226
212.64	478.571
212.86	578.571
213.07	732.143
213.29	296.053
213.50	-358.824
213.71	-17000.000
213.93	-1722.222
214.14	666.667
214.36	-2614.286
214.57	229.070
214.78	474.286
215.00	-5600.000
215.21	-2766.667
215.43	-418.182
215.64	975.000
215.86	-3400.000
216.07	704.762
216.28	269.355
216.50	389.362
216.71	-3720.000
216.93	1342.857
217.14	500.000
217.35	313.158
217.57	-900.000
217.78	1490.909
218.00	377.273
218.21	231.148
218.42	365.306
218.64	513.333
218.85	315.517
219.07	398.000
219.28	704.762
219.49	-1754.545
219.71	480.952
219.92	2316.667
220.14	6133.333
220.35	4033.333
220.56	1133.333
220.78	284.127
220.99	2616.667
221.21	437.838
221.42	496.296
221.63	541.667
221.85	16800.000
222.06	458.621
222.28	690.000
222.49	15000.000
222.70	-4400.000
222.92	337.500
223.13	234.783
223.34	298.182
223.56	429.730
223.77	1168.750
223.99	255.128
224.20	189.189
224.41	390.698
224.63	438.235
224.84	668.000
225.05	379.167
225.27	329.630
225.48	269.620
225.69	304.545
225.91	245.455
226.12	293.548
226.34	249.275
226.55	235.938
226.76	231.343
226.98	185.088
227.19	533.333
227.40	164.762
227.62	127.027
227.83	187.368
228.04	274.074
228.26	152.778
228.47	169.792
228.69	103.297
228.90	93.820
229.11	62.069
229.33	68.443
229.54	74.694
229.75	58.175
229.97	55.068
230.18	65.217
230.39	47.941
230.61	63.043
230.82	105.556
231.03	56.658
231.25	66.570
231.46	67.937
231.67	72.973
231.89	103.309
232.10	78.244
232.31	84.186
232.53	102.317
232.74	91.393
232.95	87.437
233.17	102.381
233.38	94.907
233.59	107.647
233.81	98.673
234.02	66.010
234.23	83.333
234.45	140.397
234.66	79.703
234.87	107.558
235.09	86.222
235.30	87.097
235.51	82.328
235.73	82.292
235.94	69.892
236.15	86.194
236.36	73.418
236.58	83.264
236.79	92.664
237.00	72.691
237.22	84.052
237.43	86.296
237.64	87.727
237.86	95.588
238.07	79.283
238.28	78.704
238.50	81.405
238.71	74.113
238.92	57.353
239.13	82.143
239.35	64.055
239.56	60.731
239.77	95.257
239.99	77.734
240.20	71.223
240.41	61.755
240.63	56.308
240.84	67.610
241.05	46.439
241.26	66.279
241.48	63.476
241.69	45.824
241.90	45.275
242.12	47.082
242.33	49.810
242.54	45.325
242.75	36.036
242.97	54.986
243.18	39.499
243.39	31.525
243.61	44.200
243.82	55.218
244.03	42.651
244.24	46.344
244.46	47.952
244.67	53.333
244.88	48.958
245.09	41.350
245.31	42.219
245.52	42.517
245.73	55.161
245.95	75.468
246.16	49.648
246.37	47.819
246.58	46.390
246.80	42.483
247.01	41.597
247.22	36.565
247.43	42.105
247.65	45.119
247.86	43.722
248.07	34.931
248.28	45.273
248.50	48.353
248.71	43.808
248.92	53.106
249.13	48.351
249.35	55.496
249.56	47.964
249.77	52.385
249.98	48.211
250.20	58.516
250.41	58.426
250.62	55.761
250.83	41.248
251.05	49.474
251.26	34.066
251.47	54.972
251.68	38.520
251.90	48.433
252.11	51.560
252.32	40.311
252.53	52.174
252.75	27.128
252.96	45.558
253.17	39.838
253.38	33.373
253.59	44.628
253.81	38.584
254.02	37.722
254.23	36.181
254.44	37.992
254.66	38.343
254.87	41.214
255.08	47.293
255.29	51.885
255.50	39.744
255.72	47.094
255.93	52.239
256.14	51.277
256.35	53.935
256.57	43.015
256.78	44.921
256.99	34.515
257.20	47.010
257.41	43.238
257.63	36.571
257.84	41.198
258.05	46.411
258.26	43.803
258.47	36.068
258.69	42.857
258.90	24.724
259.11	40.637
259.32	36.656
259.53	32.122
259.75	28.130
259.96	32.845
260.17	30.339
260.38	40.781
260.59	40.469
260.81	42.204
261.02	41.355
261.23	44.272
261.44	43.901
261.65	54.939
261.87	45.644
262.08	51.974
262.29	47.253
262.50	47.665
262.71	34.304
262.92	51.782
263.14	41.880
263.35	40.576
263.56	39.825
263.77	39.641
263.98	42.349
264.20	43.211
264.41	26.866
264.62	30.798
264.83	26.905
265.04	44.000
265.25	29.639
265.47	48.144
265.68	37.437
265.89	31.234
266.10	25.222
266.31	49.510
266.52	32.468
266.74	29.115
266.95	33.261
267.16	36.028
267.37	30.745
267.58	37.321
267.79	35.818
268.01	35.975
268.22	30.108
268.43	37.201
268.64	37.657
268.85	37.532
269.06	30.866
269.27	42.749
269.49	36.700
269.70	36.260
269.91	36.422
270.12	35.451
270.33	34.612
270.54	39.449
270.75	25.046
270.97	36.455
271.18	32.211
271.39	33.472
271.60	37.003
271.81	37.185
272.02	34.061
272.23	35.204
272.45	31.657
272.66	35.386
272.87	35.163
273.08	37.328
273.29	42.709
273.50	39.605
273.71	34.954
273.92	36.230
274.14	36.898
274.35	41.275
274.56	37.903
274.77	40.573
274.98	37.427
275.19	37.235
275.40	28.215
275.61	35.687
275.83	40.331
276.04	38.159
276.25	36.675
276.46	42.806
276.67	47.191
276.88	43.132
277.09	33.692
277.30	47.247
277.51	33.533
277.73	35.051
277.94	28.619
278.15	36.278
278.36	38.311
278.57	34.114
278.78	32.748
278.99	35.827
279.20	33.666
279.41	43.603
279.62	29.397
279.84	33.935
280.05	31.267
280.26	31.679
280.47	33.830
280.68	33.421
280.89	28.288
281.10	39.198
281.31	32.500
281.52	35.259
281.73	23.359
281.94	28.325
282.16	31.587
282.37	37.527
282.58	24.309
282.79	41.280
283.00	41.029
283.21	30.919
283.42	32.385
283.63	39.346
283.84	30.040
284.05	34.087
284.26	30.315
284.47	34.592
284.68	34.980
284.89	34.157
285.11	32.361
285.32	31.712
285.53	32.451
285.74	39.604
285.95	34.483
286.16	36.438
286.37	30.979
286.58	35.952
286.79	32.579
287.00	34.363
287.21	33.519
287.42	37.456
287.63	31.076
287.84	36.976
288.05	33.845
288.26	33.387
288.48	37.409
288.69	35.926
288.90	31.723
289.11	41.369
289.32	34.020
289.53	36.030
289.74	27.134
289.95	28.177
290.16	33.717
290.37	29.452
290.58	23.120
290.79	28.054
291.00	29.550
291.21	34.353
291.42	26.779
291.63	33.004
291.84	32.465
292.05	26.138
292.26	26.693
292.47	30.265
292.68	24.669
292.89	31.118
293.10	29.547
293.31	33.168
293.52	22.527
293.73	27.774
293.94	25.989
294.15	26.805
294.36	27.554
294.57	30.259
294.79	26.526
295.00	21.007
295.21	31.536
295.42	31.415
295.63	30.915
295.84	24.873
296.05	23.838
296.26	26.550
296.47	27.917
296.68	27.167
296.89	29.530
297.10	34.739
297.31	25.630
297.52	25.961
297.73	27.402
297.94	29.932
298.15	27.897
298.36	33.227
298.57	26.774
298.78	36.134
298.99	26.752
299.20	31.639
299.41	28.613
299.62	32.898
299.83	26.710
300.04	32.327
300.25	31.587
300.46	31.253
300.67	30.965
300.88	29.790
301.09	19.806
301.30	31.618
301.50	21.778
301.71	34.191
301.92	31.923
302.13	23.592
302.34	22.501
302.55	24.022
302.76	22.532
302.97	25.211
303.18	21.850
303.39	17.161
303.60	21.471
303.81	30.697
304.02	20.244
304.23	25.693
304.44	17.391
304.65	24.024
304.86	27.691
305.07	23.708
305.28	23.927
305.49	28.014
305.70	23.815
305.91	22.854
306.12	22.069
306.33	22.361
306.54	23.726
306.75	27.388
306.96	32.537
307.17	21.615
307.38	21.643
307.58	22.271
307.79	24.495
308.00	25.782
308.21	20.696
308.42	27.155
308.63	18.606
308.84	24.026
309.05	19.079
309.26	19.763
309.47	24.266
309.68	22.685
309.89	23.589
310.10	22.222
310.31	23.654
310.52	22.381
310.73	30.461
310.94	23.081
311.14	22.522
311.35	23.175
311.56	23.545
311.77	23.853
311.98	20.072
312.19	27.331
312.40	20.395
312.61	24.869
312.82	24.634
313.03	24.889
313.24	26.645
313.45	27.113
313.66	22.276
313.86	27.976
314.07	23.613
314.28	27.916
314.49	22.551
314.70	26.440
314.91	27.781
315.12	25.473
315.33	25.042
315.54	20.808
315.75	17.735
315.96	18.859
316.16	13.863
316.37	26.155
316.58	20.718
316.79	24.413
317.00	25.155
317.21	20.706
317.42	22.048
317.63	25.186
317.84	21.458
318.05	23.304
318.25	21.316
318.46	20.678
318.67	20.239
318.88	24.838
319.09	25.189
319.30	20.240
319.51	19.748
319.72	22.022
319.93	21.399
320.13	19.967
320.34	22.854
320.55	21.095
320.76	23.373
320.97	19.247
321.18	27.389
321.39	18.595
321.60	17.636
321.80	26.370
322.01	20.415
322.22	20.025
322.43	17.990
322.64	16.656
322.85	21.053
323.06	24.252
323.27	22.494
323.47	18.541
323.68	19.351
323.89	20.023
324.10	19.843
324.31	19.635
324.52	21.823
324.73	23.659
324.93	18.495
325.14	22.679
325.35	22.012
325.56	20.289
325.77	21.900
325.98	21.801
326.19	23.406
326.39	15.366
326.60	19.716
326.81	20.373
327.02	14.813
327.23	19.809
327.44	25.172
327.64	14.407
327.85	18.968
328.06	26.594
328.27	30.464
328.48	28.881
328.69	17.780
328.90	21.417
329.10	16.965
329.31	22.640
329.52	18.534
329.73	25.366
329.94	20.327
330.15	23.320
330.35	21.188
330.56	20.734
330.77	19.837
330.98	20.692
331.19	19.644
331.39	16.800
331.60	17.894
331.81	18.586
332.02	24.007
332.23	21.534
332.44	16.515
332.64	22.350
332.85	20.705
333.06	21.405
333.27	14.584
333.48	21.361
333.68	20.530
333.89	19.622
334.10	19.195
334.31	24.109
334.52	18.238
334.72	19.092
334.93	17.870
335.14	20.921
335.35	20.733
335.56	22.837
335.76	13.690
335.97	24.465
336.18	15.023
336.39	24.115
336.60	20.302
336.80	18.570
337.01	18.722
337.22	18.729
337.43	21.700
337.64	23.453
337.84	20.673
338.05	20.927
338.26	23.890
338.47	20.760
338.68	16.153
338.88	21.883
339.09	18.588
339.30	21.392
339.51	20.132
339.71	23.814
339.92	16.500
340.13	21.816
340.34	16.286
340.55	20.499
340.75	17.751
340.96	13.124
341.17	18.744
341.38	15.741
341.58	19.529
341.79	16.651
342.00	14.401
342.21	19.070
342.41	14.837
342.62	20.202
342.83	18.642
343.04	15.395
343.24	17.906
343.45	20.728
343.66	19.085
343.87	18.563
344.07	15.653
344.28	20.491
344.49	22.202
344.70	21.749
344.90	16.360
345.11	19.064
345.32	15.887
345.53	18.170
345.73	17.961
345.94	22.116
346.15	22.877
346.36	19.225
346.56	19.644
346.77	22.277
346.98	18.053
347.19	22.208
347.39	19.466
347.60	19.942
347.81	21.892
348.02	18.936
348.22	14.635
348.43	19.589
348.64	11.888
348.84	16.833
349.05	17.093
349.26	22.198
349.47	14.509
349.67	17.324
349.88	17.378
350.09	16.954
350.30	19.637
350.50	19.252
350.71	19.725
350.92	18.036
351.12	17.576
351.33	18.319
351.54	17.941
351.74	18.303
351.95	14.825
352.16	17.804
352.37	18.283
352.57	16.773
352.78	15.502
352.99	16.891
353.19	16.948
353.40	17.064
353.61	20.514
353.82	20.399
354.02	17.997
354.23	19.029
354.44	22.546
354.64	15.773
354.85	19.279
355.06	18.533
355.26	14.921
355.47	19.833
355.68	21.092
355.88	20.242
356.09	16.963
356.30	17.948
356.51	18.384
356.71	19.934
356.92	15.766
357.13	20.129
357.33	23.379
357.54	22.055
357.75	14.026
357.95	22.600
358.16	18.887
358.37	22.396
358.57	18.364
358.78	23.295
358.99	18.686
359.19	20.364
359.40	22.826
359.61	21.629
359.81	25.472
360.02	25.506
360.23	17.831
360.43	19.279
360.64	18.889
360.85	21.635
361.05	15.941
361.26	21.942
361.47	18.469
361.67	22.615
361.88	17.177
362.09	23.215
362.29	18.593
362.50	19.765
362.70	18.883
362.91	23.568
363.12	20.348
363.32	21.067
363.53	22.437
363.74	23.651
363.94	19.365
364.15	24.144
364.36	21.006
364.56	20.621
364.77	20.896
364.98	26.336
365.18	20.475
365.39	23.310
365.59	19.288
365.80	21.808
366.01	20.534
366.21	20.271
366.42	20.125
366.63	23.107
366.83	19.102
367.04	16.984
367.24	21.065
367.45	19.332
367.66	16.846
367.86	21.287
368.07	18.573
368.28	19.615
368.48	19.480
368.69	18.638
368.89	19.686
369.10	21.633
369.31	19.353
369.51	19.962
369.72	22.269
369.92	23.937
370.13	15.701
370.34	21.293
370.54	10.751
370.75	19.879
370.95	16.347
371.16	22.215
371.37	18.932
371.57	18.706
371.78	19.223
371.98	22.206
372.19	20.711
372.40	22.992
372.60	20.073
372.81	23.100
373.01	16.546
373.22	19.257
373.43	22.200
373.63	21.448
373.84	20.281
374.04	21.104
374.25	18.817
374.46	22.404
374.66	20.031
374.87	21.376
375.07	16.969
375.28	19.227
375.48	19.759
375.69	21.520
375.90	17.736
376.10	17.152
376.31	17.959
376.51	18.823
376.72	18.160
376.92	20.621
377.13	21.053
377.34	23.007
377.54	19.857
377.75	22.836
377.95	19.142
378.16	22.670
378.36	22.358
378.57	22.334
378.77	19.946
378.98	23.396
379.19	22.113
379.39	20.712
379.60	20.998
379.80	22.280
380.01	21.261
380.21	21.918
380.42	21.666
380.62	22.178
380.83	22.659
381.04	21.639
381.24	20.998
381.45	21.243
381.65	18.419
381.86	22.205
382.06	22.332
382.27	20.896
382.47	19.434
382.68	21.927
382.88	18.620
383.09	21.237
383.29	19.718
383.50	23.559
383.71	19.814
383.91	22.016
384.12	20.170
384.32	23.073
384.53	20.702
384.73	21.161
384.94	20.186
385.14	21.811
385.35	21.819
385.55	22.845
385.76	20.311
385.96	23.524
386.17	22.567
386.37	22.816
386.58	20.785
386.78	24.070
386.99	20.964
387.19	25.681
387.40	21.979
387.60	26.236
387.81	22.185
388.01	24.578
388.22	24.954
388.42	25.949
388.63	24.656
388.83	26.858
389.04	22.159
389.24	25.169
389.45	24.160
389.65	24.093
389.86	23.073
390.06	25.320
390.27	23.291
390.47	25.771
390.68	23.270
390.88	27.139
391.09	25.921
391.29	26.814
391.50	24.530
391.70	27.145
391.91	25.657
392.11	27.438
392.32	28.506
392.52	27.093
392.73	26.799
392.93	28.305
393.14	27.821
393.34	29.885
393.55	28.849
393.75	29.946
393.95	28.673
394.16	29.390
394.36	30.519
394.57	28.238
394.77	28.932
394.98	30.008
395.18	29.606
395.39	29.849
395.59	28.615
395.80	29.717
396.00	29.011
396.21	31.570
396.41	29.617
396.61	32.676
396.82	30.369
397.02	33.547
397.23	30.588
397.43	33.030
397.64	30.575
397.84	32.610
398.05	30.020
398.25	31.611
398.45	29.951
398.66	32.510
398.86	31.349
399.07	33.233
399.27	30.776
399.48	32.814
399.68	30.673
399.89	32.253
400.09	31.276
400.29	32.394
400.50	32.441
400.70	34.035
400.91	33.138
401.11	33.700
401.32	33.837
401.52	34.232
401.72	32.117
401.93	33.893
402.13	33.512
402.34	32.921
402.54	32.184
402.75	34.768
402.95	31.752
403.15	33.333
403.36	32.187
403.56	33.651
403.77	32.701
403.97	33.277
404.17	33.493
404.38	34.665
404.58	32.519
404.79	34.061
404.99	35.310
405.19	34.351
405.40	32.897
405.60	33.712
405.81	32.570
406.01	33.554
406.21	35.265
406.42	34.211
406.62	34.651
406.83	33.112
407.03	35.659
407.23	34.556
407.44	34.583
407.64	34.351
407.85	34.615
408.05	33.573
408.25	33.705
408.46	35.598
408.66	34.105
408.87	35.583
409.07	34.331
409.27	34.540
409.48	34.434
409.68	33.743
409.88	34.285
410.09	34.921
410.29	33.982
410.50	33.419
410.70	32.346
410.90	34.482
411.11	32.853
411.31	32.726
411.51	33.839
411.72	33.389
411.92	34.396
412.12	33.117
412.33	32.922
412.53	32.954
412.74	34.510
412.94	34.473
413.14	33.804
413.35	33.449
413.55	33.992
413.75	33.947
413.96	33.448
414.16	33.113
414.36	32.613
414.57	34.081
414.77	32.093
414.97	33.313
415.18	34.029
415.38	32.115
415.58	33.359
415.79	32.583
415.99	31.601
416.19	32.383
416.40	32.773
416.60	31.663
416.80	31.475
417.01	31.782
417.21	30.681
417.41	32.400
417.62	30.935
417.82	32.179
418.02	31.040
418.23	32.103
418.43	30.793
418.63	30.257
418.84	30.849
419.04	31.368
419.24	31.086
419.45	30.451
419.65	31.235
419.85	30.798
420.06	30.573
420.26	31.153
420.46	30.812
420.67	30.096
420.87	30.132
421.07	29.922
421.28	30.940
421.48	30.103
421.68	30.682
421.88	29.787
422.09	30.894
422.29	30.826
422.49	31.102
422.70	30.193
422.90	31.437
423.10	30.938
423.31	30.414
423.51	30.702
423.71	31.033
423.91	30.901
424.12	30.673
424.32	29.921
424.52	30.184
424.73	29.980
424.93	30.406
425.13	29.617
425.33	29.697
425.54	30.368
425.74	30.019
425.94	31.520
426.15	31.343
426.35	31.077
426.55	30.841
426.75	31.170
426.96	31.309
427.16	31.358
427.36	32.057
427.57	32.055
427.77	31.079
427.97	31.566
428.17	31.831
428.38	32.080
428.58	30.537
428.78	32.624
428.98	32.385
429.19	31.215
429.39	30.163
429.59	30.687
429.79	30.643
430.00	31.781
430.20	31.175
430.40	32.705
430.60	31.224
430.81	31.188
431.01	31.895
431.21	30.841
431.41	29.821
431.62	31.385
431.82	31.009
432.02	30.384
432.22	31.061
432.43	30.714
432.63	31.596
432.83	29.568
433.03	29.715
433.24	30.344
433.44	31.038
433.64	30.166
433.84	29.600
434.05	30.122
434.25	29.971
434.45	32.052
434.65	31.013
434.85	31.550
435.06	31.427
435.26	32.200
435.46	31.635
435.66	32.484
435.87	31.555
436.07	32.031
436.27	31.663
436.47	31.803
436.67	32.364
436.88	31.989
437.08	31.613
437.28	31.104
437.48	30.528
437.69	31.731
437.89	31.035
438.09	30.548
438.29	31.403
438.49	30.712
438.70	30.784
438.90	30.594
439.10	30.927
439.30	30.908
439.50	29.804
439.71	31.677
439.91	31.503
440.11	30.792
440.31	30.314
440.51	30.696
440.72	31.104
440.92	30.449
441.12	31.539
441.32	31.067
441.52	31.461
441.72	31.820
441.93	32.241
442.13	31.836
442.33	31.707
442.53	32.155
442.73	31.291
442.94	32.099
443.14	32.341
443.34	32.503
443.54	31.711
443.74	32.865
443.94	32.373
444.15	32.202
444.35	32.022
444.55	31.861
444.75	31.794
444.95	31.459
445.15	30.718
445.36	31.502
445.56	31.200
445.76	31.434
445.96	31.717
446.16	30.451
446.36	30.128
446.57	30.433
446.77	30.479
446.97	30.604
447.17	31.228
447.37	31.236
447.57	31.915
447.77	31.538
447.98	31.679
448.18	31.762
448.38	32.514
448.58	32.433
448.78	32.655
448.98	32.450
449.18	33.546
449.39	32.854
449.59	32.426
449.79	32.339
449.99	33.953
450.19	33.061
450.39	33.285
450.59	32.652
450.79	32.312
451.00	33.292
451.20	35.591
451.40	33.128
451.60	33.306
451.80	32.482
452.00	32.804
452.20	32.069
452.40	32.690
452.61	31.956
452.81	32.946
453.01	31.726
453.21	32.195
453.41	31.805
453.61	32.247
453.81	32.411
454.01	32.858
454.21	33.202
454.42	32.296
454.62	32.489
454.82	33.125
455.02	32.505
455.22	33.341
455.42	32.655
455.62	33.050
455.82	32.584
456.02	33.808
456.23	32.472
456.43	34.096
456.63	33.051
456.83	32.636
457.03	31.436
457.23	32.315
457.43	33.346
457.63	32.630
457.83	33.088
458.03	32.994
458.23	31.672
458.43	32.509
458.64	31.300
458.84	31.533
459.04	31.753
459.24	31.555
459.44	31.113
459.64	30.361
459.84	30.528
460.04	30.963
460.24	30.413
460.44	31.344
460.64	31.933
460.84	31.979
461.04	31.689
461.24	32.265
461.45	32.262
461.65	32.168
