SpectraSuite Data File
++++++++++++++++++++++++++++++++++++
Date: Sat Sep 21 03:12:01 EST 2019
User: sgrac
Dark Spectrum Present: Yes
Reference Spectrum Present: Yes
Number of Sampled Component Spectra: 1
Spectrometers: USB4E01596
Integration Time (usec): 100000 (USB4E01596)
Spectra Averaged: 1 (USB4E01596)
Boxcar Smoothing: 0 (USB4E01596)
Correct for Electrical Dark: No (USB4E01596)
Strobe/Lamp Enabled: Yes (USB4E01596)
Correct for Detector Non-linearity: No (USB4E01596)
Correct for Stray Light: No (USB4E01596)
Number of Pixels in Processed Spectrum: 3648
>>>>>Begin Processed Spectral Data<<<<<
178.44	-235.714
178.66	-235.714
178.87	-235.714
179.09	-114.286
179.30	-330.769
179.52	0.000
179.74	-1400.000
179.95	783.333
180.17	320.000
180.38	9700.000
180.60	0.000
180.82	566.667
181.03	-163.158
181.25	265.217
181.46	-187.097
181.68	237.500
181.89	5300.000
182.11	111.429
182.33	-4.444
182.54	-178.125
182.76	-2100.000
182.97	120.000
183.19	1500.000
183.40	210.345
183.62	-85.185
183.84	-133.333
184.05	295.652
184.27	475.000
184.48	671.429
184.70	200.000
184.91	-380.000
185.13	95.556
185.34	-67.857
185.56	121.667
185.78	0.000
185.99	473.333
186.21	189.655
186.42	180.000
186.64	151.613
186.85	96.296
187.07	170.909
187.28	373.333
187.50	-253.333
187.72	580.000
187.93	-5100.000
188.15	168.000
188.36	-76.471
188.58	-2000.000
188.79	200.000
189.01	227.778
189.22	1080.000
189.44	2400.000
189.65	160.000
189.87	875.000
190.09	-1040.000
190.30	456.250
190.52	-2850.000
190.73	137.500
190.95	135.714
191.16	215.556
191.38	490.000
191.59	104.762
191.81	194.444
192.02	182.979
192.24	270.588
192.45	-960.000
192.67	228.571
192.88	550.000
193.10	232.000
193.31	300.000
193.53	-8900.000
193.74	109.756
193.96	287.500
194.18	161.290
194.39	-61.111
194.61	205.263
194.82	428.571
195.04	211.905
195.25	2800.000
195.47	85.366
195.68	155.319
195.90	480.000
196.11	167.273
196.33	129.787
196.54	-1966.667
196.76	182.143
196.97	-966.667
197.19	210.714
197.40	135.294
197.62	84.375
197.83	144.595
198.05	-215.789
198.26	242.857
198.48	225.000
198.69	172.093
198.91	133.333
199.12	-125.714
199.34	-1380.000
199.55	900.000
199.77	2600.000
199.98	112.000
200.20	119.718
200.41	292.857
200.63	-277.778
200.84	119.608
201.06	392.308
201.27	256.757
201.49	1050.000
201.70	262.963
201.91	184.783
202.13	100.000
202.34	150.943
202.56	-585.714
202.77	666.667
202.99	289.286
203.20	1450.000
203.42	325.000
203.63	144.186
203.85	265.714
204.06	101.852
204.28	-540.000
204.49	177.143
204.71	156.410
204.92	0.000
205.14	-300.000
205.35	255.556
205.56	-780.000
205.78	271.429
205.99	790.000
206.21	-80.645
206.42	296.774
206.64	285.714
206.85	725.000
207.07	-323.077
207.28	471.429
207.50	-278.947
207.71	53.846
207.93	168.182
208.14	564.706
208.35	310.526
208.57	-4800.000
208.78	376.923
209.00	277.778
209.21	-2500.000
209.43	289.655
209.64	114.706
209.86	142.857
210.07	0.000
210.28	-494.118
210.50	116.327
210.71	154.386
210.93	295.238
211.14	-144.444
211.36	-132.258
211.57	-66.667
211.78	-91.304
212.00	0.000
212.21	83.721
212.43	-218.182
212.64	182.759
212.86	50.000
213.07	-236.364
213.29	200.000
213.50	4800.000
213.71	160.377
213.93	1142.857
214.14	98.485
214.36	3000.000
214.57	392.308
214.78	225.000
215.00	2850.000
215.21	225.000
215.43	204.000
215.64	284.615
215.86	137.143
216.07	-300.000
216.28	256.000
216.50	-885.714
216.71	-1580.000
216.93	210.638
217.14	128.125
217.35	207.407
217.57	217.857
217.78	650.000
218.00	-150.000
218.21	252.632
218.42	-1133.333
218.64	370.588
218.85	-655.556
219.07	428.571
219.28	1125.000
219.49	69.737
219.71	2366.667
219.92	191.667
220.14	237.500
220.35	375.000
220.56	123.077
220.78	182.353
220.99	-4100.000
221.21	395.238
221.42	0.000
221.63	222.500
221.85	132.258
222.06	346.429
222.28	165.909
222.49	-2750.000
222.70	0.000
222.92	122.222
223.13	163.333
223.34	-1025.000
223.56	97.368
223.77	68.539
223.99	228.205
224.20	61.905
224.41	248.649
224.63	219.444
224.84	148.276
225.05	121.429
225.27	68.571
225.48	102.174
225.69	214.286
225.91	218.519
226.12	130.556
226.34	110.784
226.55	68.519
226.76	112.903
226.98	132.000
227.19	63.636
227.40	59.504
227.62	93.902
227.83	77.000
228.04	74.725
228.26	55.446
228.47	8.621
228.69	44.737
228.90	-2.817
229.11	34.074
229.33	42.995
229.54	23.026
229.75	33.043
229.97	25.322
230.18	4.301
230.39	2.110
230.61	10.377
230.82	26.556
231.03	-9.129
231.25	19.865
231.46	27.372
231.67	39.130
231.89	37.255
232.10	12.955
232.31	23.077
232.53	25.424
232.74	40.104
232.95	26.506
233.17	36.994
233.38	-1.493
233.59	49.265
233.81	37.864
234.02	53.947
234.23	60.428
234.45	31.579
234.66	10.734
234.87	22.148
235.09	67.407
235.30	28.161
235.51	35.922
235.73	17.610
235.94	28.497
236.15	15.306
236.36	38.095
236.58	47.867
236.79	35.602
237.00	25.121
237.22	45.679
237.43	12.745
237.64	24.891
237.86	33.152
238.07	43.216
238.28	11.475
238.50	20.000
238.71	34.911
238.92	16.071
239.13	35.429
239.35	15.385
239.56	26.563
239.77	48.780
239.99	32.075
240.20	1.053
240.41	31.034
240.63	15.385
240.84	23.506
241.05	16.788
241.26	8.264
241.48	20.944
241.69	9.177
241.90	15.493
242.12	12.245
242.33	14.009
242.54	4.264
242.75	17.078
242.97	8.448
243.18	11.616
243.39	12.946
243.61	8.096
243.82	7.832
244.03	2.158
244.24	0.920
244.46	12.593
244.67	6.437
244.88	9.859
245.09	10.851
245.31	0.576
245.52	19.301
245.73	18.093
245.95	14.712
246.16	7.809
246.37	16.085
246.58	14.019
246.80	18.501
247.01	1.659
247.22	8.701
247.43	4.157
247.65	7.543
247.86	-0.684
248.07	2.676
248.28	6.240
248.50	5.473
248.71	5.874
248.92	1.965
249.13	7.473
249.35	5.859
249.56	8.243
249.77	6.104
249.98	6.883
250.20	5.111
250.41	3.911
250.62	6.145
250.83	1.767
251.05	6.100
251.26	-2.904
251.47	9.910
251.68	8.592
251.90	14.130
252.11	4.878
252.32	11.636
252.53	9.887
252.75	8.800
252.96	13.782
253.17	12.067
253.38	16.081
253.59	-0.847
253.81	6.996
254.02	9.804
254.23	15.675
254.44	13.972
254.66	10.579
254.87	17.329
255.08	7.326
255.29	15.863
255.50	17.204
255.72	24.541
255.93	21.411
256.14	17.727
256.35	17.799
256.57	14.436
256.78	22.603
256.99	20.942
257.20	3.883
257.41	16.149
257.63	12.679
257.84	15.560
258.05	15.417
258.26	13.874
258.47	10.197
258.69	10.966
258.90	11.180
259.11	5.460
259.32	4.743
259.53	4.826
259.75	6.448
259.96	1.945
260.17	6.732
260.38	0.566
260.59	3.704
260.81	3.640
261.02	4.485
261.23	5.732
261.44	4.037
261.65	5.239
261.87	1.939
262.08	3.865
262.29	5.638
262.50	6.098
262.71	7.119
262.92	6.762
263.14	8.752
263.35	1.404
263.56	0.706
263.77	7.648
263.98	10.185
264.20	10.492
264.41	6.077
264.62	11.321
264.83	8.757
265.04	10.879
265.25	9.302
265.47	9.517
265.68	11.953
265.89	6.489
266.10	3.125
266.31	11.807
266.52	7.212
266.74	7.002
266.95	4.712
267.16	6.057
267.37	10.250
267.58	3.571
267.79	0.890
268.01	8.462
268.22	11.078
268.43	9.897
268.64	2.932
268.85	3.202
269.06	4.137
269.27	7.411
269.49	3.326
269.70	3.816
269.91	6.083
270.12	8.031
270.33	9.062
270.54	8.988
270.75	8.187
270.97	6.276
271.18	3.487
271.39	7.895
271.60	5.268
271.81	4.713
272.02	7.424
272.23	9.141
272.45	5.116
272.66	3.658
272.87	2.560
273.08	4.102
273.29	4.870
273.50	6.998
273.71	3.116
273.92	4.144
274.14	2.682
274.35	-1.862
274.56	2.238
274.77	2.638
274.98	7.371
275.19	7.016
275.40	9.372
275.61	2.594
275.83	6.860
276.04	5.513
276.25	5.294
276.46	6.118
276.67	3.593
276.88	7.239
277.09	4.856
277.30	4.782
277.51	10.082
277.73	3.700
277.94	6.918
278.15	6.069
278.36	4.255
278.57	7.070
278.78	8.600
278.99	7.024
279.20	6.638
279.41	6.707
279.62	-0.321
279.84	6.753
280.05	4.334
280.26	4.969
280.47	4.839
280.68	-0.437
280.89	12.115
281.10	8.111
281.31	3.137
281.52	7.556
281.73	8.484
281.94	5.727
282.16	6.872
282.37	6.435
282.58	6.043
282.79	6.297
283.00	7.352
283.21	3.548
283.42	3.005
283.63	1.634
283.84	4.416
284.05	5.060
284.26	5.361
284.47	4.219
284.68	5.547
284.89	3.157
285.11	4.531
285.32	3.391
285.53	2.108
285.74	6.254
285.95	2.945
286.16	6.349
286.37	2.865
286.58	3.080
286.79	5.462
287.00	6.083
287.21	1.186
287.42	4.379
287.63	5.425
287.84	3.459
288.05	4.353
288.26	4.308
288.48	4.740
288.69	2.016
288.90	2.117
289.11	5.891
289.32	4.388
289.53	4.326
289.74	3.214
289.95	4.945
290.16	4.843
290.37	3.378
290.58	3.610
290.79	3.167
291.00	6.796
291.21	0.461
291.42	4.233
291.63	3.598
291.84	5.615
292.05	3.316
292.26	4.676
292.47	5.222
292.68	0.548
292.89	5.437
293.10	4.745
293.31	6.205
293.52	5.068
293.73	2.651
293.94	4.930
294.15	5.287
294.36	3.735
294.57	6.773
294.79	7.913
295.00	7.322
295.21	2.874
295.42	3.967
295.63	4.782
295.84	2.208
296.05	6.364
296.26	4.140
296.47	6.196
296.68	3.416
296.89	4.380
297.10	4.302
297.31	3.425
297.52	5.182
297.73	3.979
297.94	2.923
298.15	2.504
298.36	4.580
298.57	3.462
298.78	4.407
298.99	2.091
299.20	2.243
299.41	2.334
299.62	5.655
299.83	5.057
300.04	5.808
300.25	6.031
300.46	4.077
300.67	5.423
300.88	4.700
301.09	4.703
301.30	7.065
301.50	5.962
301.71	2.446
301.92	7.219
302.13	5.246
302.34	4.787
302.55	3.542
302.76	4.539
302.97	8.439
303.18	5.040
303.39	4.852
303.60	4.944
303.81	8.465
304.02	4.758
304.23	5.031
304.44	5.968
304.65	4.225
304.86	4.443
305.07	4.536
305.28	6.593
305.49	10.186
305.70	5.045
305.91	5.489
306.12	5.036
306.33	5.744
306.54	5.209
306.75	6.967
306.96	11.601
307.17	5.819
307.38	5.191
307.58	2.529
307.79	8.580
308.00	8.145
308.21	7.948
308.42	7.239
308.63	11.254
308.84	7.303
309.05	7.281
309.26	6.596
309.47	5.862
309.68	4.296
309.89	8.101
310.10	5.860
310.31	5.421
310.52	4.785
310.73	8.423
310.94	3.710
311.14	3.644
311.35	5.236
311.56	3.473
311.77	3.704
311.98	2.298
312.19	5.543
312.40	4.026
312.61	6.919
312.82	4.946
313.03	5.211
313.24	6.217
313.45	7.640
313.66	5.349
313.86	5.569
314.07	5.691
314.28	4.902
314.49	7.932
314.70	4.691
314.91	7.317
315.12	8.248
315.33	8.345
315.54	7.624
315.75	3.756
315.96	3.966
316.16	6.966
316.37	8.493
316.58	8.690
316.79	7.824
317.00	8.828
317.21	6.156
317.42	6.407
317.63	9.195
317.84	10.288
318.05	4.622
318.25	10.313
318.46	8.021
318.67	6.416
318.88	8.426
319.09	8.971
319.30	6.452
319.51	6.162
319.72	10.274
319.93	7.199
320.13	6.436
320.34	7.801
320.55	5.399
320.76	7.837
320.97	9.435
321.18	8.675
321.39	7.238
321.60	5.568
321.80	11.490
322.01	6.836
322.22	9.268
322.43	4.897
322.64	5.126
322.85	7.061
323.06	10.244
323.27	8.393
323.47	7.668
323.68	8.430
323.89	7.640
324.10	8.814
324.31	5.882
324.52	6.154
324.73	8.896
324.93	6.154
325.14	4.524
325.35	7.518
325.56	7.528
325.77	7.366
325.98	8.174
326.19	7.063
326.39	7.539
326.60	7.736
326.81	7.129
327.02	9.063
327.23	3.993
327.44	10.318
327.64	6.884
327.85	8.206
328.06	10.237
328.27	12.860
328.48	9.675
328.69	7.143
328.90	8.424
329.10	4.446
329.31	4.590
329.52	8.856
329.73	12.169
329.94	6.648
330.15	7.877
330.35	8.223
330.56	10.470
330.77	7.485
330.98	8.395
331.19	8.930
331.39	8.458
331.60	6.311
331.81	8.740
332.02	12.450
332.23	7.061
332.44	9.960
332.64	10.605
332.85	9.285
333.06	10.222
333.27	4.771
333.48	8.312
333.68	8.272
333.89	7.987
334.10	4.237
334.31	9.677
334.52	8.541
334.72	8.182
334.93	8.024
335.14	9.367
335.35	5.815
335.56	9.745
335.76	4.915
335.97	11.159
336.18	7.293
336.39	9.981
336.60	12.149
336.80	8.278
337.01	7.813
337.22	7.742
337.43	10.443
337.64	11.776
337.84	6.593
338.05	8.407
338.26	9.834
338.47	10.933
338.68	6.711
338.88	9.048
339.09	9.521
339.30	9.326
339.51	9.482
339.71	13.515
339.92	7.555
340.13	10.837
340.34	8.261
340.55	10.872
340.75	8.599
340.96	8.036
341.17	10.664
341.38	8.167
341.58	8.445
341.79	12.931
342.00	6.268
342.21	8.367
342.41	8.098
342.62	9.179
342.83	10.603
343.04	7.473
343.24	10.414
343.45	12.356
343.66	8.632
343.87	13.611
344.07	6.264
344.28	11.933
344.49	11.955
344.70	14.625
344.90	10.523
345.11	7.981
345.32	8.567
345.53	7.885
345.73	9.990
345.94	13.982
346.15	13.001
346.36	10.182
346.56	10.573
346.77	14.492
346.98	10.849
347.19	14.448
347.39	11.837
347.60	12.057
347.81	14.200
348.02	13.221
348.22	6.717
348.43	13.430
348.64	10.460
348.84	14.181
349.05	13.405
349.26	18.667
349.47	10.130
349.67	12.914
349.88	13.856
350.09	14.571
350.30	13.300
350.50	10.972
350.71	14.582
350.92	15.787
351.12	12.805
351.33	12.357
351.54	12.257
351.74	15.842
351.95	12.671
352.16	14.662
352.37	15.877
352.57	13.196
352.78	11.502
352.99	15.904
353.19	11.220
353.40	11.135
353.61	17.788
353.82	14.488
354.02	13.919
354.23	13.670
354.44	14.664
354.64	15.895
354.85	12.265
355.06	13.897
355.26	10.176
355.47	15.622
355.68	14.571
355.88	16.755
356.09	13.399
356.30	12.123
356.51	16.437
356.71	16.072
356.92	11.751
357.13	15.766
357.33	16.340
357.54	13.793
357.75	11.197
357.95	16.872
358.16	11.168
358.37	19.661
358.57	11.663
358.78	20.298
358.99	13.745
359.19	14.157
359.40	15.394
359.61	15.494
359.81	14.697
360.02	17.841
360.23	13.199
360.43	15.350
360.64	13.235
360.85	15.265
361.05	13.291
361.26	18.789
361.47	13.791
361.67	18.839
361.88	10.151
362.09	18.301
362.29	12.809
362.50	14.358
362.70	11.998
362.91	18.260
363.12	11.821
363.32	15.352
363.53	15.033
363.74	17.250
363.94	11.943
364.15	18.652
364.36	14.160
364.56	14.232
364.77	15.480
364.98	18.532
365.18	14.530
365.39	17.478
365.59	11.415
365.80	15.722
366.01	16.046
366.21	12.543
366.42	10.913
366.63	17.383
366.83	12.821
367.04	9.623
367.24	15.209
367.45	11.306
367.66	9.907
367.86	15.997
368.07	10.704
368.28	12.173
368.48	13.624
368.69	10.035
368.89	12.368
369.10	13.679
369.31	10.452
369.51	11.426
369.72	14.532
369.92	17.492
370.13	8.048
370.34	13.761
370.54	7.035
370.75	13.215
370.95	8.436
371.16	13.991
371.37	10.401
371.57	11.485
371.78	12.300
371.98	13.962
372.19	13.236
372.40	15.952
372.60	13.043
372.81	13.854
373.01	8.960
373.22	11.773
373.43	12.705
373.63	15.343
373.84	11.226
374.04	13.469
374.25	11.467
374.46	12.606
374.66	11.957
374.87	11.107
375.07	7.477
375.28	10.263
375.48	8.917
375.69	12.963
375.90	9.107
376.10	8.211
376.31	9.104
376.51	11.228
376.72	9.834
376.92	8.776
377.13	11.630
377.34	13.853
377.54	10.073
377.75	13.854
377.95	9.731
378.16	13.121
378.36	10.619
378.57	13.882
378.77	12.029
378.98	12.484
379.19	10.383
379.39	8.160
379.60	10.046
379.80	13.225
380.01	12.472
380.21	9.783
380.42	10.526
380.62	11.506
380.83	12.573
381.04	11.024
381.24	11.175
381.45	9.738
381.65	8.065
381.86	10.317
382.06	11.256
382.27	7.020
382.47	7.933
382.68	14.370
382.88	6.851
383.09	8.250
383.29	7.196
383.50	12.892
383.71	8.973
383.91	10.421
384.12	7.389
384.32	10.379
384.53	8.984
384.73	7.518
384.94	7.926
385.14	10.247
385.35	7.203
385.55	8.773
385.76	8.458
385.96	11.358
386.17	9.693
386.37	10.629
386.58	8.562
386.78	9.634
386.99	7.102
387.19	11.108
387.40	7.594
387.60	13.216
387.81	8.658
388.01	9.011
388.22	9.742
388.42	11.172
388.63	9.559
388.83	11.650
389.04	7.055
389.24	10.961
389.45	8.237
389.65	9.237
389.86	6.792
390.06	7.862
390.27	7.418
390.47	8.348
390.68	6.466
390.88	11.948
391.09	10.091
391.29	10.200
391.50	9.059
391.70	9.238
391.91	8.138
392.11	9.829
392.32	9.071
392.52	11.181
392.73	8.848
392.93	9.227
393.14	8.470
393.34	10.243
393.55	7.507
393.75	10.449
393.95	7.947
394.16	10.333
394.36	11.260
394.57	12.174
394.77	9.580
394.98	9.076
395.18	8.575
395.39	8.993
395.59	8.707
395.80	8.890
396.00	8.557
396.21	10.675
396.41	7.700
396.61	11.553
396.82	8.208
397.02	11.683
397.23	9.562
397.43	8.740
397.64	6.096
397.84	10.370
398.05	6.800
398.25	11.215
398.45	8.496
398.66	9.597
398.86	9.520
399.07	10.938
399.27	7.352
399.48	8.388
399.68	7.198
399.89	8.161
400.09	9.248
400.29	7.041
400.50	8.187
400.70	8.899
400.91	6.906
401.11	7.167
401.32	8.501
401.52	7.422
401.72	8.023
401.93	11.480
402.13	8.643
402.34	8.247
402.54	7.053
402.75	10.823
402.95	6.008
403.15	11.156
403.36	5.952
403.56	8.522
403.77	7.056
403.97	7.918
404.17	6.473
404.38	9.297
404.58	6.934
404.79	9.341
404.99	8.440
405.19	8.473
405.40	6.806
405.60	10.017
405.81	8.525
406.01	8.070
406.21	6.816
406.42	8.721
406.62	8.613
406.83	9.509
407.03	8.555
407.23	6.421
407.44	7.556
407.64	9.705
407.85	8.730
408.05	8.737
408.25	6.092
408.46	9.518
408.66	8.484
408.87	7.879
409.07	7.009
409.27	6.873
409.48	7.847
409.68	7.914
409.88	5.947
410.09	8.440
410.29	7.170
410.50	9.637
410.70	4.788
410.90	7.266
411.11	6.050
411.31	8.006
411.51	7.933
411.72	8.770
411.92	6.154
412.12	6.953
412.33	5.925
412.53	7.614
412.74	5.673
412.94	7.570
413.14	6.583
413.35	8.223
413.55	7.327
413.75	8.373
413.96	5.600
414.16	7.964
414.36	7.875
414.57	7.220
414.77	7.148
414.97	7.348
415.18	7.672
415.38	7.404
415.58	7.021
415.79	5.989
415.99	7.461
416.19	8.024
416.40	7.674
416.60	7.637
416.80	7.131
417.01	8.102
417.21	5.837
417.41	9.996
417.62	7.555
417.82	8.497
418.02	5.980
418.23	8.204
418.43	7.902
418.63	8.468
418.84	9.801
419.04	8.723
419.24	9.684
419.45	10.097
419.65	10.026
419.85	10.357
420.06	9.571
420.26	9.880
420.46	9.114
420.67	11.198
420.87	10.097
421.07	11.210
421.28	9.690
421.48	11.567
421.68	10.768
421.88	11.716
422.09	10.933
422.29	10.870
422.49	9.762
422.70	10.943
422.90	9.713
423.10	11.047
423.31	9.815
423.51	11.083
423.71	9.211
423.91	11.494
424.12	11.048
424.32	11.077
424.52	10.158
424.73	11.342
424.93	10.433
425.13	10.705
425.33	9.742
425.54	11.221
425.74	10.163
425.94	11.044
426.15	10.443
426.35	11.093
426.55	10.118
426.75	11.195
426.96	10.566
427.16	9.891
427.36	9.532
427.57	11.287
427.77	9.023
427.97	10.129
428.17	9.553
428.38	10.279
428.58	7.022
428.78	8.823
428.98	7.138
429.19	8.506
429.39	7.175
429.59	9.146
429.79	6.802
430.00	7.168
430.20	5.954
430.40	8.059
430.60	7.456
430.81	8.405
431.01	7.028
431.21	8.358
431.41	6.728
431.62	9.291
431.82	8.253
432.02	10.247
432.22	7.845
432.43	7.584
432.63	6.169
432.83	8.761
433.03	8.503
433.24	7.616
433.44	7.855
433.64	8.560
433.84	7.860
434.05	9.867
434.25	8.596
434.45	9.095
434.65	9.398
434.85	11.433
435.06	9.306
435.26	10.148
435.46	8.552
435.66	8.872
435.87	8.195
436.07	9.642
436.27	8.999
436.47	8.077
436.67	8.485
436.88	9.987
437.08	8.362
437.28	9.550
437.48	8.918
437.69	9.800
437.89	8.420
438.09	10.047
438.29	8.991
438.49	9.398
438.70	8.878
438.90	9.104
439.10	8.386
439.30	10.632
439.50	8.567
439.71	10.258
439.91	9.215
440.11	10.112
440.31	10.364
440.51	9.800
440.72	9.076
440.92	10.615
441.12	10.289
441.32	11.026
441.52	10.370
441.72	10.939
441.93	10.195
442.13	11.614
442.33	9.824
442.53	11.487
442.73	9.417
442.94	11.151
443.14	8.988
443.34	11.142
443.54	10.183
443.74	10.978
443.94	10.031
444.15	9.824
444.35	8.939
444.55	10.403
444.75	9.278
444.95	9.745
445.15	9.141
445.36	10.404
445.56	8.453
445.76	10.668
445.96	9.554
446.16	10.142
446.36	8.451
446.57	11.209
446.77	9.484
446.97	10.438
447.17	10.573
447.37	11.173
447.57	10.518
447.77	11.020
447.98	10.099
448.18	11.415
448.38	10.643
448.58	11.190
448.78	10.960
448.98	10.550
449.18	9.896
449.39	10.233
449.59	9.774
449.79	10.609
449.99	9.041
450.19	10.000
450.39	9.121
450.59	10.293
450.79	8.735
451.00	10.656
451.20	9.647
451.40	9.864
451.60	8.766
451.80	9.532
452.00	7.547
452.20	9.938
452.40	8.760
452.61	9.707
452.81	8.672
453.01	9.634
453.21	8.255
453.41	9.941
453.61	9.186
453.81	10.113
454.01	9.076
454.21	10.030
454.42	9.232
454.62	9.658
454.82	7.826
455.02	9.079
455.22	7.802
455.42	8.841
455.62	6.727
455.82	9.414
456.02	8.357
456.23	8.737
456.43	9.000
456.63	9.818
456.83	7.418
457.03	9.822
457.23	8.337
457.43	9.159
457.63	7.370
457.83	9.360
458.03	7.658
458.23	9.033
458.43	8.165
458.64	9.225
458.84	8.520
459.04	9.355
459.24	8.399
459.44	10.057
459.64	9.281
459.84	9.986
460.04	10.066
460.24	10.248
460.44	10.030
460.64	10.731
460.84	10.300
461.04	10.848
461.24	10.443
461.45	10.903
461.65	10.920
461.85	10.840
462.05	10.155
462.25	11.520
462.45	10.721
462.65	10.972
462.85	8.589
463.05	10.083
463.25	8.326
463.45	9.358
463.65	8.326
463.85	9.846
464.05	7.685
464.25	8.828
464.45	9.123
464.65	8.843
464.85	8.247
465.05	9.202
465.26	8.006
465.46	9.797
465.66	9.679
465.86	9.916
466.06	8.828
466.26	9.778
466.46	6.703
466.66	8.933
466.86	9.436
467.06	8.481
467.26	8.692
467.46	10.044
467.66	8.513
467.86	9.769
468.06	8.714
468.26	8.628
468.46	9.523
468.66	9.257
468.86	7.779
469.06	9.706
469.26	8.034
469.46	9.096
469.66	7.460
469.86	10.225
470.06	8.835
470.26	10.482
470.46	8.382
470.66	10.628
470.86	6.887
471.06	8.672
471.26	7.928
471.46	8.710
471.66	8.402
471.86	9.155
472.06	8.213
472.26	9.446
472.46	9.624
472.66	9.391
472.86	7.765
473.06	8.743
473.26	7.885
473.46	8.872
473.66	7.959
