SpectraSuite Data File
++++++++++++++++++++++++++++++++++++
Date: Sat Sep 21 03:45:38 EST 2019
User: sgrac
Dark Spectrum Present: Yes
Reference Spectrum Present: Yes
Number of Sampled Component Spectra: 1
Spectrometers: USB4E01596
Integration Time (usec): 100000 (USB4E01596)
Spectra Averaged: 1 (USB4E01596)
Boxcar Smoothing: 0 (USB4E01596)
Correct for Electrical Dark: No (USB4E01596)
Strobe/Lamp Enabled: Yes (USB4E01596)
Correct for Detector Non-linearity: No (USB4E01596)
Correct for Stray Light: No (USB4E01596)
Number of Pixels in Processed Spectrum: 3648
>>>>>Begin Processed Spectral Data<<<<<
178.44	-64.286
178.66	-64.286
178.87	-64.286
179.09	-342.857
179.30	-707.692
179.52	0.000
179.74	-1675.000
179.95	633.333
180.17	600.000
180.38	7100.000
180.60	0.000
180.82	383.333
181.03	-205.263
181.25	56.522
181.46	-183.871
181.68	370.833
181.89	8700.000
182.11	234.286
182.33	-177.778
182.54	-212.500
182.76	-4900.000
182.97	680.000
183.19	1550.000
183.40	182.759
183.62	-185.185
183.84	-200.000
184.05	534.783
184.27	350.000
184.48	1200.000
184.70	180.000
184.91	-526.667
185.13	171.111
185.34	-189.286
185.56	166.667
185.78	0.000
185.99	566.667
186.21	275.862
186.42	593.333
186.64	172.581
186.85	248.148
187.07	134.545
187.28	553.333
187.50	-400.000
187.72	1520.000
187.93	-5100.000
188.15	192.000
188.36	-276.471
188.58	-2450.000
188.79	263.636
189.01	200.000
189.22	960.000
189.44	3550.000
189.65	200.000
189.87	387.500
190.09	-1720.000
190.30	643.750
190.52	-3400.000
190.73	169.643
190.95	342.857
191.16	228.889
191.38	910.000
191.59	223.810
191.81	150.000
192.02	191.489
192.24	476.471
192.45	-1360.000
192.67	357.143
192.88	525.000
193.10	240.000
193.31	475.000
193.53	-9500.000
193.74	143.902
193.96	395.833
194.18	245.161
194.39	-311.111
194.61	436.842
194.82	361.905
195.04	238.095
195.25	5400.000
195.47	207.317
195.68	253.191
195.90	860.000
196.11	183.636
196.33	244.681
196.54	-2966.667
196.76	353.571
196.97	-2266.667
197.19	267.857
197.40	241.176
197.62	185.938
197.83	158.108
198.05	-431.579
198.26	348.571
198.48	211.111
198.69	195.349
198.91	321.569
199.12	-177.143
199.34	-720.000
199.55	5700.000
199.77	1375.000
199.98	364.000
200.20	142.254
200.41	657.143
200.63	-266.667
200.84	156.863
201.06	638.462
201.27	354.054
201.49	1475.000
201.70	277.778
201.91	241.304
202.13	184.058
202.34	235.849
202.56	-1185.714
202.77	1155.556
202.99	460.714
203.20	4650.000
203.42	1387.500
203.63	223.256
203.85	157.143
204.06	242.593
204.28	-660.000
204.49	202.857
204.71	146.154
204.92	0.000
205.14	-178.571
205.35	350.000
205.56	-1320.000
205.78	457.143
205.99	930.000
206.21	-274.194
206.42	209.677
206.64	332.143
206.85	1200.000
207.07	-538.462
207.28	300.000
207.50	-331.579
207.71	171.795
207.93	134.091
208.14	541.176
208.35	436.842
208.57	-7000.000
208.78	515.385
209.00	400.000
209.21	-2100.000
209.43	244.828
209.64	238.235
209.86	900.000
210.07	0.000
210.28	-405.882
210.50	175.510
210.71	261.404
210.93	519.048
211.14	-455.556
211.36	-119.355
211.57	-290.476
211.78	-113.043
212.00	0.000
212.21	193.023
212.43	-331.818
212.64	168.966
212.86	-912.500
213.07	-181.818
213.29	218.421
213.50	8000.000
213.71	175.472
213.93	1142.857
214.14	150.000
214.36	5700.000
214.57	311.538
214.78	581.250
215.00	3350.000
215.21	233.333
215.43	244.000
215.64	279.487
215.86	302.857
216.07	8100.000
216.28	236.000
216.50	-657.143
216.71	-1120.000
216.93	257.447
217.14	140.625
217.35	514.815
217.57	275.000
217.78	750.000
218.00	-220.000
218.21	431.579
218.42	-2833.333
218.64	552.941
218.85	-566.667
219.07	450.000
219.28	1775.000
219.49	151.316
219.71	500.000
219.92	288.889
220.14	216.667
220.35	325.000
220.56	56.410
220.78	182.353
220.99	-6400.000
221.21	319.048
221.42	441.667
221.63	235.000
221.85	135.484
222.06	253.571
222.28	236.364
222.49	-3750.000
222.70	0.000
222.92	316.667
223.13	163.333
223.34	-1250.000
223.56	97.368
223.77	108.989
223.99	241.026
224.20	138.095
224.41	162.162
224.63	325.000
224.84	175.862
225.05	264.286
225.27	141.429
225.48	108.696
225.69	457.143
225.91	225.926
226.12	327.778
226.34	88.235
226.55	101.852
226.76	138.710
226.98	120.000
227.19	104.545
227.40	47.934
227.62	103.659
227.83	77.000
228.04	81.319
228.26	79.208
228.47	60.345
228.69	52.632
228.90	54.930
229.11	53.333
229.33	29.952
229.54	49.342
229.75	35.652
229.97	22.747
230.18	13.620
230.39	13.924
230.61	29.560
230.82	41.909
231.03	14.108
231.25	28.620
231.46	31.387
231.67	35.968
231.89	48.627
232.10	29.960
232.31	38.942
232.53	23.164
232.74	29.687
232.95	50.602
233.17	37.572
233.38	50.000
233.59	53.676
233.81	60.194
234.02	55.263
234.23	42.246
234.45	64.474
234.66	49.718
234.87	42.282
235.09	37.778
235.30	40.805
235.51	50.000
235.73	50.943
235.94	27.979
236.15	40.816
236.36	46.561
236.58	42.180
236.79	41.361
237.00	24.155
237.22	58.642
237.43	22.549
237.64	20.961
237.86	33.152
238.07	53.769
238.28	46.995
238.50	40.000
238.71	28.994
238.92	28.571
239.13	37.714
239.35	35.664
239.56	48.438
239.77	57.561
239.99	32.075
240.20	31.053
240.41	30.172
240.63	28.745
240.84	40.637
241.05	21.168
241.26	23.967
241.48	34.513
241.69	18.671
241.90	14.930
242.12	16.582
242.33	16.810
242.54	12.580
242.75	15.560
242.97	19.138
243.18	12.963
243.39	16.071
243.61	8.996
243.82	8.392
244.03	13.381
244.24	10.123
244.46	9.778
244.67	9.731
244.88	16.275
245.09	17.529
245.31	8.829
245.52	21.875
245.73	21.595
245.95	21.962
246.16	3.037
246.37	25.775
246.58	11.589
246.80	13.078
247.01	10.558
247.22	16.494
247.43	11.910
247.65	11.207
247.86	10.362
248.07	6.438
248.28	11.611
248.50	7.322
248.71	10.866
248.92	8.224
249.13	8.059
249.35	10.625
249.56	9.742
249.77	8.797
249.98	7.553
250.20	10.333
250.41	15.642
250.62	8.434
250.83	16.348
251.05	14.928
251.26	13.249
251.47	17.117
251.68	11.335
251.90	15.942
252.11	14.983
252.32	10.793
252.53	15.073
252.75	9.600
252.96	22.436
253.17	14.702
253.38	14.054
253.59	7.910
253.81	11.248
254.02	15.535
254.23	16.255
254.44	19.309
254.66	16.198
254.87	12.455
255.08	16.300
255.29	13.052
255.50	21.935
255.72	17.661
255.93	18.248
256.14	22.727
256.35	22.951
256.57	14.961
256.78	18.265
256.99	14.660
257.20	11.650
257.41	25.880
257.63	15.337
257.84	19.710
258.05	13.958
258.26	11.892
258.47	10.018
258.69	11.620
258.90	11.491
259.11	5.616
259.32	9.079
259.53	6.300
259.75	8.962
259.96	5.118
260.17	6.732
260.38	8.333
260.59	9.926
260.81	6.897
261.02	7.770
261.23	9.251
261.44	4.389
261.65	7.024
261.87	1.818
262.08	6.608
262.29	7.651
262.50	11.478
262.71	6.441
262.92	9.045
263.14	13.873
263.35	10.331
263.56	7.529
263.77	10.545
263.98	10.582
264.20	18.005
264.41	4.558
264.62	16.173
264.83	9.040
265.04	14.644
265.25	14.244
265.47	13.595
265.68	13.703
265.89	11.314
266.10	7.401
266.31	21.195
266.52	12.344
266.74	5.936
266.95	8.508
267.16	11.469
267.37	9.500
267.58	3.333
267.79	7.786
268.01	3.846
268.22	15.070
268.43	9.175
268.64	11.937
268.85	4.696
269.06	6.101
269.27	10.097
269.49	9.044
269.70	10.550
269.91	9.285
270.12	10.561
270.33	12.223
270.54	10.640
270.75	4.211
270.97	11.934
271.18	8.821
271.39	9.818
271.60	11.044
271.81	7.257
272.02	10.733
272.23	6.741
272.45	4.279
272.66	4.988
272.87	7.765
273.08	5.989
273.29	8.484
273.50	6.697
273.71	9.878
273.92	6.754
274.14	5.365
274.35	4.291
274.56	8.796
274.77	4.204
274.98	9.664
275.19	11.545
275.40	7.739
275.61	5.860
275.83	14.300
276.04	7.447
276.25	10.882
276.46	6.720
276.67	8.830
276.88	7.653
277.09	4.658
277.30	8.940
277.51	12.449
277.73	4.400
277.94	8.805
278.15	6.166
278.36	5.471
278.57	4.303
278.78	11.900
278.99	11.220
279.20	9.850
279.41	11.890
279.62	9.615
279.84	7.646
280.05	10.042
280.26	10.248
280.47	6.149
280.68	-0.109
280.89	12.308
281.10	9.792
281.31	5.418
281.52	12.220
281.73	9.819
281.94	10.091
282.16	5.425
282.37	11.262
282.58	8.030
282.79	12.091
283.00	9.524
283.21	6.129
283.42	7.242
283.63	5.837
283.84	8.833
284.05	7.952
284.26	6.993
284.47	4.766
284.68	9.646
284.89	6.788
285.11	8.602
285.32	7.762
285.53	3.464
285.74	8.756
285.95	8.425
286.16	6.019
286.37	6.901
286.58	5.908
286.79	7.503
287.00	5.900
287.21	5.457
287.42	5.621
287.63	4.776
287.84	3.962
288.05	4.606
288.26	6.614
288.48	6.208
288.69	4.973
288.90	4.015
289.11	7.452
289.32	6.331
289.53	5.499
289.74	2.857
289.95	7.159
290.16	8.832
290.37	4.785
290.58	7.004
290.79	5.054
291.00	8.350
291.21	3.560
291.42	5.291
291.63	4.104
291.84	8.139
292.05	4.775
292.26	6.470
292.47	7.415
292.68	4.863
292.89	8.190
293.10	7.226
293.31	6.710
293.52	7.110
293.73	7.068
293.94	8.904
294.15	6.590
294.36	1.868
294.57	7.763
294.79	8.766
295.00	4.738
295.21	6.394
295.42	7.376
295.63	7.209
295.84	5.383
296.05	4.895
296.26	5.692
296.47	5.669
296.68	6.515
296.89	6.630
297.10	5.532
297.31	5.993
297.52	7.192
297.73	5.393
297.94	8.720
298.15	3.780
298.36	6.632
298.57	4.327
298.78	6.611
298.99	2.237
299.20	4.200
299.41	3.112
299.62	6.572
299.83	3.493
300.04	4.025
300.25	6.720
300.46	6.595
300.67	4.762
300.88	7.115
301.09	6.476
301.30	4.688
301.50	8.944
301.71	6.639
301.92	7.019
302.13	6.654
302.34	8.245
302.55	5.461
302.76	5.365
302.97	7.736
303.18	3.960
303.39	5.134
303.60	3.552
303.81	7.174
304.02	6.489
304.23	7.477
304.44	5.899
304.65	5.856
304.86	5.400
305.07	5.832
305.28	6.789
305.49	8.052
305.70	6.842
305.91	8.635
306.12	5.180
306.33	7.336
306.54	6.970
306.75	6.193
306.96	7.579
307.17	6.106
307.38	4.580
307.58	7.280
307.79	7.821
308.00	7.089
308.21	9.954
308.42	7.313
308.63	10.896
308.84	6.671
309.05	4.755
309.26	6.809
309.47	7.258
309.68	4.577
309.89	6.370
310.10	6.983
310.31	6.791
310.52	4.785
310.73	6.332
310.94	5.266
311.14	4.164
311.35	2.036
311.56	3.025
311.77	5.527
311.98	5.033
312.19	5.543
312.40	3.373
312.61	4.324
312.82	5.000
313.03	4.334
313.24	7.031
313.45	4.754
313.66	5.116
313.86	5.030
314.07	4.031
314.28	4.052
314.49	6.047
314.70	6.050
314.91	6.504
315.12	7.157
315.33	5.870
315.54	7.143
315.75	4.896
315.96	6.799
316.16	6.207
316.37	6.849
316.58	4.947
316.79	5.260
317.00	5.379
317.21	3.352
317.42	5.014
317.63	4.989
317.84	5.540
318.05	6.723
318.25	6.615
318.46	5.298
318.67	4.867
318.88	8.635
319.09	4.191
319.30	5.950
319.51	6.088
319.72	7.071
319.93	7.127
320.13	5.375
320.34	6.241
320.55	5.843
320.76	6.967
320.97	7.076
321.18	6.042
321.39	3.545
321.60	5.206
321.80	7.448
322.01	7.313
322.22	5.763
322.43	5.608
322.64	3.902
322.85	3.530
323.06	4.649
323.27	4.663
323.47	8.764
323.68	9.520
323.89	4.419
324.10	6.237
324.31	6.224
324.52	5.315
324.73	6.623
324.93	7.051
325.14	2.994
325.35	7.029
325.56	6.426
325.77	6.814
325.98	5.072
326.19	6.506
326.39	5.732
326.60	3.019
326.81	5.066
327.02	7.360
327.23	3.569
327.44	7.311
327.64	5.556
327.85	4.835
328.06	6.686
328.27	6.929
328.48	4.470
328.69	2.820
328.90	4.340
329.10	5.839
329.31	2.990
329.52	5.450
329.73	8.333
329.94	5.471
330.15	2.804
330.35	8.293
330.56	2.752
330.77	3.219
330.98	10.611
331.19	4.840
331.39	7.231
331.60	2.635
331.81	6.707
332.02	7.697
332.23	6.134
332.44	3.694
332.64	5.338
332.85	7.816
333.06	6.095
333.27	3.987
333.48	6.662
333.68	5.247
333.89	3.696
334.10	2.741
334.31	6.641
334.52	5.237
334.72	6.424
334.93	4.742
335.14	8.481
335.35	4.916
335.56	4.780
335.76	5.734
335.97	6.463
336.18	4.944
336.39	6.929
336.60	7.631
336.80	5.234
337.01	6.310
337.22	2.600
337.43	7.529
337.64	6.597
337.84	5.006
338.05	8.466
338.26	6.690
338.47	6.536
338.68	6.106
338.88	5.774
339.09	4.850
339.30	4.164
339.51	6.478
339.71	5.336
339.92	8.651
340.13	5.734
340.34	6.412
340.55	5.914
340.75	7.517
340.96	6.767
341.17	4.814
341.38	1.996
341.58	3.436
341.79	5.257
342.00	4.452
342.21	4.272
342.41	2.999
342.62	5.017
342.83	6.864
343.04	3.651
343.24	3.855
343.45	7.586
343.66	5.549
343.87	6.000
344.07	4.545
344.28	3.780
344.49	6.947
344.70	8.333
344.90	5.451
345.11	4.017
345.32	6.134
345.53	5.434
345.73	3.765
345.94	5.645
346.15	5.550
346.36	3.850
346.56	5.776
346.77	5.478
346.98	5.776
347.19	5.227
347.39	6.837
347.60	4.661
347.81	7.275
348.02	5.819
348.22	2.955
348.43	3.638
348.64	7.777
348.84	6.978
349.05	6.561
349.26	8.500
349.47	4.659
349.67	5.697
349.88	7.624
350.09	7.424
350.30	6.845
350.50	4.508
350.71	5.735
350.92	6.560
351.12	5.651
351.33	5.711
351.54	7.838
351.74	8.474
351.95	5.152
352.16	6.540
352.37	8.719
352.57	4.651
352.78	5.147
352.99	6.264
353.19	4.630
353.40	3.676
353.61	10.850
353.82	6.719
354.02	9.001
354.23	4.202
354.44	7.230
354.64	7.948
354.85	6.209
355.06	6.726
355.26	3.409
355.47	8.060
355.68	7.186
355.88	9.153
356.09	6.650
356.30	6.087
356.51	7.163
356.71	6.253
356.92	4.541
357.13	4.316
357.33	7.829
357.54	4.819
357.75	4.953
357.95	7.718
358.16	5.415
358.37	9.211
358.57	5.503
358.78	9.384
358.99	6.019
359.19	5.059
359.40	7.510
359.61	6.141
359.81	8.518
360.02	6.428
360.23	5.254
360.43	7.655
360.64	6.677
360.85	7.400
361.05	6.410
361.26	7.771
361.47	4.816
361.67	8.191
361.88	4.725
362.09	6.888
362.29	6.451
362.50	4.577
362.70	4.385
362.91	6.413
363.12	4.444
363.32	4.515
363.53	6.326
363.74	7.428
363.94	3.822
364.15	7.395
364.36	5.462
364.56	3.601
364.77	7.651
364.98	8.881
365.18	6.726
365.39	8.079
365.59	6.175
365.80	5.338
366.01	8.004
366.21	4.420
366.42	4.737
366.63	6.836
366.83	7.492
367.04	4.222
367.24	8.243
367.45	6.007
367.66	4.665
367.86	6.759
368.07	6.175
368.28	5.046
368.48	4.476
368.69	5.383
368.89	6.729
369.10	4.405
369.31	4.977
369.51	5.753
369.72	7.949
369.92	7.744
370.13	4.306
370.34	5.412
370.54	3.498
370.75	7.534
370.95	5.810
371.16	6.698
371.37	5.900
371.57	5.436
371.78	5.723
371.98	6.798
372.19	5.780
372.40	8.047
372.60	8.800
372.81	6.536
373.01	4.428
373.22	5.478
373.43	5.782
373.63	8.314
373.84	6.093
374.04	7.277
374.25	5.545
374.46	6.542
374.66	5.707
374.87	5.667
375.07	5.136
375.28	4.933
375.48	5.321
375.69	7.704
375.90	6.071
376.10	5.171
376.31	5.534
376.51	4.722
376.72	4.796
376.92	5.035
377.13	6.449
377.34	9.214
377.54	6.101
377.75	6.656
377.95	5.972
378.16	5.623
378.36	6.741
378.57	7.267
378.77	6.258
378.98	9.504
379.19	7.347
379.39	4.694
379.60	5.379
379.80	7.518
380.01	8.708
380.21	5.864
380.42	8.876
380.62	6.949
380.83	9.332
381.04	6.016
381.24	7.354
381.45	6.179
381.65	5.961
381.86	6.921
382.06	7.863
382.27	3.922
382.47	5.192
382.68	9.632
382.88	3.228
383.09	5.446
383.29	7.034
383.50	9.855
383.71	6.946
383.91	7.462
384.12	4.533
384.32	9.301
384.53	6.413
384.73	5.561
384.94	6.132
385.14	6.653
385.35	6.152
385.55	7.084
385.76	4.747
385.96	8.350
386.17	7.749
386.37	8.857
386.58	8.618
386.78	9.863
386.99	7.476
387.19	9.992
387.40	6.517
387.60	12.564
387.81	7.902
388.01	7.966
388.22	10.467
388.42	11.776
388.63	9.787
388.83	11.596
389.04	7.342
389.24	11.046
389.45	7.942
389.65	9.148
389.86	9.532
390.06	9.123
390.27	8.566
390.47	9.430
390.68	8.670
390.88	13.517
391.09	10.775
391.29	11.890
391.50	11.705
391.70	12.265
391.91	9.297
392.11	11.415
392.32	11.691
392.52	15.586
392.73	12.976
392.93	13.720
393.14	12.246
393.34	13.374
393.55	12.659
393.75	14.110
393.95	10.207
394.16	14.811
394.36	16.171
394.57	16.109
394.77	13.387
394.98	12.697
395.18	14.275
395.39	14.356
395.59	14.496
395.80	15.480
396.00	14.802
396.21	15.951
396.41	12.155
396.61	16.514
396.82	14.198
397.02	18.816
397.23	16.892
397.43	14.199
397.64	11.454
397.84	17.575
398.05	10.160
398.25	17.330
398.45	12.771
398.66	17.867
398.86	14.842
399.07	17.580
399.27	14.012
399.48	17.791
399.68	14.421
399.89	15.554
400.09	16.770
400.29	15.233
400.50	14.896
400.70	16.858
400.91	14.442
401.11	16.126
401.32	14.615
401.52	12.536
401.72	14.400
401.93	17.573
402.13	15.323
402.34	14.756
402.54	12.309
402.75	19.129
402.95	11.610
403.15	18.468
403.36	13.006
403.56	16.363
403.77	13.444
403.97	16.070
404.17	13.477
404.38	17.328
404.58	14.343
404.79	18.326
404.99	16.250
405.19	17.315
405.40	14.657
405.60	17.704
405.81	16.224
406.01	16.704
406.21	15.346
406.42	17.846
406.62	17.092
406.83	16.509
407.03	17.410
407.23	15.600
407.44	14.503
407.64	18.394
407.85	16.883
408.05	18.076
408.25	14.279
408.46	17.421
408.66	16.339
408.87	15.374
409.07	13.459
409.27	14.836
409.48	15.849
409.68	17.521
409.88	12.366
410.09	16.034
410.29	14.545
410.50	18.354
410.70	11.173
410.90	16.410
411.11	13.301
411.31	15.712
411.51	16.517
411.72	18.559
411.92	14.270
412.12	15.360
412.33	12.829
412.53	15.559
412.74	12.024
412.94	14.706
413.14	13.916
413.35	16.730
413.55	13.866
413.75	16.818
413.96	12.913
414.16	16.331
414.36	14.524
414.57	15.938
414.77	13.370
414.97	14.621
415.18	12.940
415.38	15.899
415.58	15.299
415.79	14.525
415.99	13.792
416.19	16.578
416.40	14.948
416.60	15.491
416.80	13.932
417.01	16.929
417.21	12.971
417.41	17.928
417.62	15.020
417.82	16.924
418.02	13.865
418.23	16.964
418.43	15.657
418.63	15.938
418.84	17.336
419.04	16.334
419.24	16.880
419.45	17.700
419.65	18.235
419.85	18.107
420.06	17.670
420.26	17.816
420.46	16.663
420.67	17.887
420.87	17.383
421.07	17.896
421.28	16.593
421.48	18.117
421.68	17.081
421.88	18.545
422.09	17.348
422.29	17.727
422.49	17.704
422.70	18.239
422.90	16.627
423.10	18.129
423.31	17.245
423.51	18.241
423.71	17.295
423.91	18.380
424.12	18.082
424.32	17.248
424.52	17.387
424.73	18.531
424.93	17.309
425.13	17.379
425.33	16.626
425.54	17.446
425.74	17.536
425.94	17.650
426.15	18.101
426.35	17.393
426.55	17.570
426.75	17.507
426.96	18.695
427.16	17.045
427.36	16.694
427.57	17.825
427.77	16.655
427.97	17.701
428.17	17.096
428.38	17.212
428.58	14.650
428.78	16.928
428.98	14.127
429.19	16.692
429.39	13.211
429.59	17.096
429.79	14.093
430.00	13.990
430.20	12.570
430.40	15.427
430.60	15.016
430.81	16.425
431.01	14.091
431.21	15.938
431.41	13.235
431.62	16.740
431.82	15.367
432.02	16.807
432.22	13.582
432.43	15.185
432.63	13.847
432.83	16.601
433.03	15.148
433.24	15.771
433.44	15.681
433.64	16.454
433.84	15.677
434.05	17.897
434.25	16.349
434.45	17.059
434.65	16.120
434.85	17.875
435.06	17.537
435.26	16.985
435.46	16.801
435.66	16.910
435.87	16.417
436.07	17.754
436.27	16.895
436.47	16.450
436.67	15.971
436.88	18.825
437.08	17.117
437.28	17.223
437.48	15.989
437.69	17.599
437.89	15.782
438.09	17.279
438.29	15.427
438.49	17.596
438.70	16.820
438.90	16.766
439.10	16.449
439.30	17.591
439.50	16.261
439.71	17.372
439.91	16.711
440.11	17.529
440.31	17.221
440.51	17.460
440.72	16.807
440.92	17.685
441.12	17.402
441.32	17.810
441.52	17.814
441.72	17.825
441.93	17.937
442.13	18.517
442.33	17.129
442.53	17.805
442.73	17.554
442.94	18.172
443.14	16.921
443.34	18.731
443.54	18.156
443.74	18.531
443.94	17.263
444.15	17.272
444.35	16.422
444.55	18.035
444.75	17.716
444.95	18.039
445.15	16.407
445.36	17.977
445.56	17.156
445.76	18.487
445.96	16.954
446.16	17.321
446.36	17.350
446.57	17.749
446.77	17.442
446.97	17.925
447.17	17.184
447.37	17.677
447.57	18.068
447.77	18.470
447.98	18.273
448.18	18.581
448.38	18.142
448.58	19.152
448.78	18.247
448.98	17.995
449.18	17.737
449.39	17.678
449.59	18.052
449.79	18.055
449.99	17.471
450.19	18.619
450.39	17.534
450.59	18.324
450.79	17.753
451.00	18.713
451.20	18.268
451.40	17.810
451.60	16.460
451.80	18.281
452.00	17.677
452.20	17.705
452.40	17.024
452.61	16.881
452.81	17.495
453.01	17.894
453.21	16.943
453.41	18.098
453.61	16.570
453.81	19.072
454.01	16.866
454.21	18.025
454.42	17.163
454.62	18.299
454.82	17.096
455.02	17.375
455.22	16.482
455.42	17.326
455.62	16.360
455.82	17.686
456.02	15.937
456.23	17.362
456.43	16.753
456.63	18.259
456.83	17.053
457.03	17.714
457.23	16.957
457.43	17.005
457.63	16.136
457.83	17.232
458.03	16.532
458.23	17.468
458.43	15.841
458.64	17.935
458.84	16.293
459.04	17.368
459.24	16.636
459.44	17.448
459.64	16.569
459.84	17.651
460.04	17.166
460.24	17.721
460.44	17.957
460.64	17.551
460.84	17.177
461.04	17.684
461.24	17.805
461.45	17.759
461.65	18.001
461.85	18.353
462.05	18.136
462.25	18.097
462.45	18.237
462.65	18.128
462.85	17.249
463.05	18.265
463.25	16.802
463.45	17.318
463.65	17.220
463.85	17.771
464.05	16.704
464.25	17.906
464.45	17.422
464.65	16.697
464.85	15.930
465.05	16.997
465.26	16.789
465.46	18.187
465.66	17.118
465.86	17.965
466.06	16.919
466.26	18.403
466.46	15.036
466.66	17.182
466.86	16.671
467.06	17.027
467.26	16.402
467.46	17.484
467.66	15.731
467.86	17.276
468.06	16.957
468.26	17.604
468.46	16.136
468.66	17.310
468.86	15.096
469.06	17.446
469.26	15.319
469.46	17.300
469.66	16.104
469.86	18.091
470.06	15.994
470.26	17.783
470.46	16.597
470.66	17.686
470.86	16.197
471.06	17.937
