SpectraSuite Data File
++++++++++++++++++++++++++++++++++++
Date: Sat Sep 21 04:38:47 EST 2019
User: sgrac
Dark Spectrum Present: Yes
Reference Spectrum Present: Yes
Number of Sampled Component Spectra: 1
Spectrometers: USB4E01596
Integration Time (usec): 100000 (USB4E01596)
Spectra Averaged: 1 (USB4E01596)
Boxcar Smoothing: 0 (USB4E01596)
Correct for Electrical Dark: No (USB4E01596)
Strobe/Lamp Enabled: Yes (USB4E01596)
Correct for Detector Non-linearity: No (USB4E01596)
Correct for Stray Light: No (USB4E01596)
Number of Pixels in Processed Spectrum: 3648
>>>>>Begin Processed Spectral Data<<<<<
178.44	-250.000
178.66	-250.000
178.87	-250.000
179.09	-471.429
179.30	-453.846
179.52	0.000
179.74	-1750.000
179.95	683.333
180.17	640.000
180.38	11200.000
180.60	0.000
180.82	783.333
181.03	-463.158
181.25	365.217
181.46	-277.419
181.68	395.833
181.89	10900.000
182.11	314.286
182.33	-271.111
182.54	-268.750
182.76	-4700.000
182.97	1020.000
183.19	2250.000
183.40	224.138
183.62	-233.333
183.84	-233.333
184.05	421.739
184.27	566.667
184.48	1385.714
184.70	172.000
184.91	-586.667
185.13	142.222
185.34	-207.143
185.56	171.667
185.78	0.000
185.99	840.000
186.21	455.172
186.42	886.667
186.64	187.097
186.85	262.963
187.07	181.818
187.28	733.333
187.50	-380.000
187.72	1860.000
187.93	-8600.000
188.15	198.000
188.36	-582.353
188.58	-3850.000
188.79	490.909
189.01	416.667
189.22	1960.000
189.44	3950.000
189.65	300.000
189.87	712.500
190.09	-2380.000
190.30	893.750
190.52	-4300.000
190.73	228.571
190.95	364.286
191.16	286.667
191.38	760.000
191.59	269.048
191.81	227.778
192.02	248.936
192.24	658.824
192.45	-1460.000
192.67	397.143
192.88	508.333
193.10	280.000
193.31	340.000
193.53	-9500.000
193.74	178.049
193.96	566.667
194.18	293.548
194.39	-461.111
194.61	363.158
194.82	423.810
195.04	271.429
195.25	4400.000
195.47	300.000
195.68	272.340
195.90	940.000
196.11	205.455
196.33	193.617
196.54	-2700.000
196.76	264.286
196.97	-3266.667
197.19	353.571
197.40	314.706
197.62	179.688
197.83	183.784
198.05	-384.211
198.26	377.143
198.48	280.556
198.69	225.581
198.91	237.255
199.12	-231.429
199.34	-2320.000
199.55	6700.000
199.77	2550.000
199.98	352.000
200.20	171.831
200.41	800.000
200.63	-444.444
200.84	149.020
201.06	692.308
201.27	335.135
201.49	1287.500
201.70	218.519
201.91	226.087
202.13	191.304
202.34	286.792
202.56	-1300.000
202.77	711.111
202.99	446.429
203.20	3700.000
203.42	1312.500
203.63	227.907
203.85	260.000
204.06	331.481
204.28	-980.000
204.49	228.571
204.71	217.949
204.92	0.000
205.14	-685.714
205.35	544.444
205.56	-1700.000
205.78	547.619
205.99	830.000
206.21	-138.710
206.42	341.935
206.64	260.714
206.85	1875.000
207.07	-630.769
207.28	585.714
207.50	-526.316
207.71	271.795
207.93	279.545
208.14	558.824
208.35	468.421
208.57	-8000.000
208.78	1084.615
209.00	422.222
209.21	-4200.000
209.43	344.828
209.64	185.294
209.86	1414.286
210.07	0.000
210.28	-682.353
210.50	202.041
210.71	196.491
210.93	347.619
211.14	-522.222
211.36	-283.871
211.57	-357.143
211.78	-286.957
212.00	0.000
212.21	313.953
212.43	-254.545
212.64	210.345
212.86	-100.000
213.07	-400.000
213.29	260.526
213.50	10900.000
213.71	196.226
213.93	1700.000
214.14	153.030
214.36	7100.000
214.57	430.769
214.78	556.250
215.00	3700.000
215.21	225.000
215.43	272.000
215.64	315.385
215.86	297.143
216.07	4600.000
216.28	412.000
216.50	-1057.143
216.71	-2240.000
216.93	278.723
217.14	237.500
217.35	448.148
217.57	396.429
217.78	825.000
218.00	-670.000
218.21	357.895
218.42	-2900.000
218.64	547.059
218.85	-1300.000
219.07	428.571
219.28	2375.000
219.49	132.895
219.71	3166.667
219.92	325.000
220.14	179.167
220.35	465.000
220.56	197.436
220.78	441.176
220.99	-6300.000
221.21	461.905
221.42	558.333
221.63	355.000
221.85	222.581
222.06	296.429
222.28	209.091
222.49	-4850.000
222.70	0.000
222.92	344.444
223.13	250.000
223.34	-2550.000
223.56	173.684
223.77	122.472
223.99	297.436
224.20	154.762
224.41	313.514
224.63	258.333
224.84	127.586
225.05	339.286
225.27	128.571
225.48	100.000
225.69	1000.000
225.91	344.444
226.12	222.222
226.34	137.255
226.55	77.778
226.76	206.452
226.98	124.000
227.19	138.636
227.40	69.421
227.62	95.122
227.83	119.000
228.04	91.209
228.26	78.218
228.47	108.621
228.69	55.263
228.90	77.465
229.11	68.148
229.33	50.725
229.54	51.974
229.75	22.609
229.97	36.910
230.18	31.900
230.39	21.941
230.61	31.132
230.82	42.739
231.03	23.651
231.25	33.333
231.46	29.562
231.67	43.874
231.89	60.000
232.10	26.721
232.31	54.327
232.53	55.932
232.74	40.625
232.95	59.036
233.17	52.601
233.38	30.597
233.59	77.206
233.81	48.544
234.02	78.947
234.23	46.524
234.45	69.737
234.66	47.458
234.87	69.799
235.09	46.667
235.30	43.678
235.51	58.738
235.73	28.931
235.94	52.850
236.15	56.633
236.36	52.910
236.58	48.341
236.79	40.838
237.00	36.232
237.22	63.580
237.43	57.843
237.64	30.131
237.86	45.652
238.07	62.312
238.28	36.066
238.50	50.435
238.71	37.278
238.92	42.262
239.13	40.571
239.35	48.252
239.56	41.146
239.77	57.561
239.99	35.849
240.20	36.842
240.41	32.328
240.63	37.652
240.84	26.295
241.05	35.766
241.26	34.298
241.48	39.823
241.69	21.519
241.90	29.577
242.12	20.408
242.33	13.578
242.54	9.808
242.75	18.027
242.97	22.069
243.18	16.667
243.39	20.387
243.61	13.493
243.82	14.545
244.03	11.511
244.24	11.810
244.46	17.333
244.67	10.629
244.88	12.520
245.09	20.534
245.31	15.355
245.52	26.654
245.73	15.953
245.95	22.814
246.16	17.570
246.37	17.636
246.58	17.570
246.80	17.544
247.01	15.385
247.22	14.545
247.43	17.753
247.65	12.177
247.86	6.940
248.07	8.863
248.28	9.163
248.50	6.509
248.71	8.664
248.92	6.914
249.13	8.205
249.35	6.875
249.56	12.906
249.77	8.169
249.98	6.119
250.20	4.556
250.41	10.838
250.62	7.590
250.83	15.758
251.05	14.767
251.26	17.241
251.47	14.955
251.68	19.744
251.90	17.029
252.11	20.557
252.32	13.153
252.53	17.666
252.75	13.920
252.96	19.551
253.17	14.008
253.38	14.459
253.59	9.887
253.81	13.580
254.02	10.709
254.23	19.303
254.44	13.972
254.66	10.744
254.87	18.592
255.08	24.359
255.29	21.084
255.50	19.785
255.72	26.147
255.93	29.197
256.14	21.818
256.35	24.590
256.57	21.260
256.78	27.169
256.99	21.990
257.20	21.117
257.41	21.739
257.63	23.926
257.84	19.710
258.05	15.000
258.26	17.658
258.47	17.889
258.69	13.912
258.90	12.733
259.11	6.708
259.32	3.659
259.53	9.517
259.75	9.727
259.96	6.039
260.17	8.169
260.38	5.583
260.59	5.333
260.81	6.258
261.02	5.875
261.23	9.421
261.44	7.373
261.65	5.757
261.87	4.000
262.08	6.421
262.29	8.926
262.50	9.039
262.71	5.254
262.92	8.115
263.14	10.056
263.35	9.428
263.56	2.588
263.77	12.283
263.98	13.095
264.20	16.192
264.41	7.320
264.62	19.542
264.83	12.994
265.04	17.434
265.25	11.192
265.47	11.782
265.68	17.493
265.89	13.644
266.10	9.539
266.31	18.634
266.52	15.395
266.74	7.763
266.95	7.068
267.16	9.923
267.37	13.250
267.58	4.167
267.79	6.674
268.01	9.121
268.22	11.577
268.43	11.443
268.64	11.728
268.85	8.004
269.06	11.479
269.27	9.452
269.49	10.395
269.70	7.969
269.91	14.621
270.12	11.221
270.33	13.488
270.54	10.537
270.75	5.497
270.97	10.288
271.18	10.462
271.39	9.413
271.60	11.348
271.81	9.896
272.02	10.555
272.23	7.941
272.45	7.256
272.66	7.149
272.87	7.082
273.08	7.957
273.29	10.134
273.50	5.493
273.71	9.119
273.92	8.212
274.14	4.526
274.35	3.644
274.56	9.259
274.77	4.452
274.98	11.630
275.19	11.545
275.40	11.092
275.61	8.934
275.83	11.787
276.04	9.284
276.25	13.235
276.46	8.325
276.67	9.446
276.88	9.721
277.09	7.631
277.30	8.732
277.51	10.597
277.73	6.700
277.94	6.918
278.15	8.960
278.36	10.334
278.57	9.426
278.78	9.400
278.99	10.634
279.20	10.600
279.41	12.297
279.62	6.731
279.84	11.023
280.05	13.108
280.26	9.317
280.47	8.367
280.68	3.493
280.89	10.096
281.10	9.100
281.31	8.365
281.52	12.034
281.73	10.582
281.94	5.182
282.16	11.031
282.37	12.701
282.58	8.858
282.79	10.495
283.00	9.858
283.21	6.694
283.42	7.935
283.63	4.358
283.84	9.385
284.05	6.506
284.26	8.625
284.47	9.453
284.68	11.576
284.89	8.208
285.11	6.298
285.32	5.426
285.53	2.937
285.74	10.354
285.95	8.493
286.16	6.481
286.37	6.901
286.58	3.960
286.79	8.643
287.00	8.881
287.21	7.117
287.42	6.272
287.63	4.658
287.84	4.088
288.05	7.382
288.26	7.888
288.48	9.146
288.69	4.704
288.90	7.445
289.11	8.730
289.32	7.482
289.53	9.384
289.74	6.000
289.95	3.469
290.16	9.259
290.37	4.574
290.58	8.736
290.79	4.919
291.00	8.220
291.21	5.537
291.42	3.373
291.63	6.503
291.84	9.148
292.05	7.825
292.26	6.726
292.47	7.672
292.68	5.616
292.89	6.263
293.10	6.934
293.31	9.524
293.52	9.002
293.73	5.141
293.94	7.947
294.15	8.123
294.36	6.226
294.57	10.578
294.79	8.766
295.00	6.533
295.21	4.885
295.42	8.699
295.63	9.350
295.84	6.211
296.05	3.357
296.26	6.404
296.47	5.339
296.68	7.780
296.89	3.467
297.10	6.269
297.31	5.879
297.52	8.461
297.73	5.916
297.94	6.956
298.15	2.700
298.36	6.059
298.57	5.048
298.78	6.807
298.99	2.481
299.20	3.580
299.41	5.342
299.62	5.706
299.83	5.370
300.04	6.038
300.25	6.203
300.46	5.995
300.67	5.688
300.88	6.919
301.09	4.090
301.30	4.823
301.50	7.453
301.71	8.316
301.92	7.353
302.13	6.334
302.34	6.383
302.55	6.642
302.76	8.253
302.97	8.087
303.18	4.536
303.39	5.767
303.60	6.407
303.81	6.815
304.02	4.903
304.23	4.542
304.44	6.523
304.65	4.744
304.86	7.724
305.07	4.536
305.28	6.593
305.49	8.672
305.70	7.049
305.91	8.902
306.12	3.597
306.33	6.920
306.54	7.924
306.75	7.248
306.96	10.982
307.17	7.040
307.38	8.015
307.58	8.506
307.79	8.125
308.00	8.597
308.21	7.870
308.42	4.403
308.63	10.609
308.84	8.216
309.05	9.510
309.26	5.603
309.47	5.862
309.68	4.296
309.89	5.813
310.10	8.603
310.31	5.296
310.52	3.574
310.73	6.810
310.94	6.703
311.14	5.668
311.35	4.770
311.56	5.210
311.77	5.869
311.98	6.729
312.19	5.054
312.40	5.822
312.61	4.541
312.82	5.484
313.03	4.882
313.24	5.869
313.45	4.075
313.66	6.105
313.86	5.868
314.07	7.232
314.28	7.386
314.49	7.217
314.70	5.099
314.91	4.804
315.12	7.498
315.33	9.123
315.54	7.212
315.75	6.573
315.96	7.224
316.16	5.793
316.37	5.822
316.58	7.487
316.79	5.457
317.00	7.517
317.21	3.078
317.42	5.501
317.63	5.274
317.84	6.259
318.05	11.204
318.25	6.401
318.46	7.432
318.67	3.614
318.88	9.053
319.09	8.529
319.30	9.606
319.51	7.275
319.72	6.938
319.93	7.631
320.13	7.567
320.34	10.851
320.55	5.251
320.76	7.620
320.97	7.863
321.18	6.662
321.39	7.090
321.60	7.303
321.80	11.094
322.01	5.405
322.22	5.919
322.43	6.003
322.64	5.815
322.85	7.214
323.06	7.486
323.27	10.976
323.47	8.998
323.68	8.503
323.89	5.543
324.10	5.153
324.31	7.592
324.52	9.231
324.73	8.117
324.93	8.013
325.14	4.325
325.35	5.501
325.56	5.447
325.77	6.016
325.98	6.504
326.19	8.116
326.39	6.791
326.60	5.157
326.81	3.940
327.02	7.908
327.23	3.630
327.44	8.255
327.64	5.374
327.85	6.679
328.06	5.503
328.27	6.283
328.48	4.470
328.69	7.018
328.90	5.871
329.10	4.844
329.31	2.782
329.52	9.060
329.73	6.812
329.94	6.925
330.15	4.539
330.35	6.969
330.56	7.651
330.77	4.716
330.98	10.544
331.19	5.385
331.39	6.480
331.60	6.519
331.81	7.995
332.02	10.174
332.23	4.565
332.44	5.541
332.64	6.619
332.85	7.281
333.06	7.302
333.27	4.706
333.48	6.028
333.68	7.222
333.89	3.366
334.10	3.738
334.31	8.792
334.52	8.479
334.72	8.788
334.93	5.410
335.14	5.570
335.35	4.736
335.56	5.338
335.76	3.403
335.97	9.024
336.18	5.068
336.39	5.086
336.60	5.739
336.80	6.999
337.01	4.988
337.22	1.300
337.43	6.315
337.64	5.672
337.84	7.143
338.05	4.879
338.26	7.147
338.47	7.427
338.68	5.018
338.88	6.250
339.09	8.683
339.30	5.279
339.51	4.064
339.71	6.206
339.92	7.670
340.13	7.511
340.34	6.473
340.55	6.452
340.75	6.855
340.96	3.927
341.17	6.520
341.38	5.929
341.58	4.252
341.79	5.136
342.00	6.034
342.21	5.149
342.41	4.439
342.62	3.763
342.83	6.362
343.04	3.309
343.24	4.891
343.45	3.851
343.66	5.886
343.87	7.167
344.07	5.155
344.28	5.778
344.49	6.300
344.70	7.726
344.90	5.990
345.11	5.624
345.32	5.605
345.53	5.487
345.73	5.070
345.94	5.748
346.15	4.882
346.36	4.205
346.56	4.112
346.77	5.329
346.98	4.671
347.19	5.276
347.39	4.490
347.60	5.623
347.81	4.867
348.02	7.963
348.22	2.472
348.43	4.976
348.64	7.503
348.84	4.952
349.05	6.335
349.26	8.611
349.47	4.984
349.67	7.054
349.88	5.398
350.09	4.765
350.30	7.401
350.50	4.834
350.71	5.079
350.92	6.133
351.12	5.132
351.33	5.192
351.54	5.313
351.74	7.368
351.95	3.838
352.16	4.852
352.37	7.266
352.57	5.030
352.78	5.725
352.99	7.952
353.19	6.046
353.40	6.446
353.61	8.033
353.82	3.097
354.02	6.750
354.23	6.862
354.44	7.281
354.64	9.759
354.85	5.191
355.06	7.221
355.26	4.804
355.47	4.527
355.68	6.088
355.88	6.199
356.09	5.966
356.30	3.873
356.51	7.300
356.71	7.920
356.92	4.822
357.13	3.589
357.33	6.509
357.54	4.553
357.75	5.383
357.95	6.322
358.16	3.934
358.37	7.765
358.57	5.503
358.78	8.377
358.99	4.514
359.19	5.182
359.40	6.680
359.61	6.222
359.81	8.309
360.02	6.881
360.23	5.717
360.43	6.723
360.64	7.035
360.85	6.122
361.05	5.741
361.26	7.078
361.47	5.035
361.67	7.692
361.88	4.130
362.09	7.248
362.29	6.481
362.50	5.085
362.70	5.177
362.91	6.176
363.12	3.796
363.32	3.883
363.53	4.792
363.74	8.103
363.94	4.586
364.15	6.872
364.36	6.473
364.56	3.841
364.77	8.714
364.98	8.183
365.18	5.760
365.39	8.267
365.59	6.325
365.80	7.898
366.01	7.451
366.21	7.594
366.42	3.372
366.63	5.703
366.83	6.330
367.04	5.972
367.24	9.288
367.45	6.381
367.66	3.161
367.86	6.196
368.07	6.587
368.28	5.740
368.48	5.917
368.69	4.191
368.89	7.180
369.10	7.187
369.31	7.389
369.51	7.171
369.72	8.189
369.92	8.373
370.13	4.708
370.34	7.847
370.54	6.359
370.75	9.222
370.95	6.407
371.16	8.482
371.37	6.278
371.57	4.824
371.78	7.915
371.98	6.542
372.19	7.064
372.40	7.976
372.60	8.174
372.81	7.425
373.01	4.772
373.22	6.431
373.43	7.316
373.63	8.483
373.84	5.096
374.04	7.169
374.25	6.035
374.46	6.395
374.66	6.832
374.87	5.893
375.07	4.456
375.28	7.490
375.48	6.349
375.69	8.704
375.90	6.036
376.10	6.150
376.31	5.034
376.51	6.681
376.72	5.590
376.92	5.594
377.13	5.626
377.34	8.215
377.54	5.243
377.75	5.987
377.95	7.014
378.16	6.186
378.36	7.418
378.57	8.012
378.77	6.713
378.98	6.305
379.19	8.409
379.39	5.388
379.60	6.739
379.80	5.983
380.01	6.826
380.21	6.628
380.42	7.319
380.62	7.304
380.83	8.717
381.04	5.333
381.24	7.001
381.45	6.212
381.65	5.355
381.86	6.856
382.06	6.819
382.27	4.054
382.47	5.805
382.68	8.510
382.88	4.875
383.09	5.156
383.29	5.770
383.50	6.753
383.71	6.115
383.91	6.626
384.12	5.464
384.32	6.745
384.53	6.970
384.73	5.064
384.94	5.178
385.14	6.207
385.35	5.702
385.55	5.691
385.76	4.862
385.96	6.775
386.17	6.002
386.37	6.200
386.58	5.595
386.78	7.233
386.99	3.795
387.19	6.810
387.40	5.781
387.60	7.843
387.81	5.985
388.01	5.254
388.22	7.335
388.42	6.890
388.63	8.051
388.83	7.369
389.04	5.047
389.24	7.757
389.45	5.314
389.65	6.445
389.86	6.017
390.06	5.544
390.27	5.652
390.47	6.125
390.68	6.094
390.88	8.517
391.09	7.412
391.29	8.149
391.50	6.601
391.70	7.255
391.91	6.663
392.11	6.604
392.32	6.864
392.52	8.083
392.73	6.574
392.93	6.763
393.14	6.196
393.34	6.942
393.55	4.735
393.75	6.719
393.95	5.735
394.16	7.431
394.36	8.259
394.57	8.731
394.77	7.124
394.98	6.372
395.18	6.462
395.39	6.253
395.59	7.260
395.80	6.854
396.00	6.836
396.21	8.908
396.41	5.545
396.61	7.850
396.82	8.381
397.02	9.796
397.23	9.402
397.43	6.850
397.64	4.210
397.84	8.110
398.05	5.554
398.25	7.442
398.45	5.844
398.66	7.984
398.86	7.764
399.07	9.620
399.27	5.807
399.48	7.484
399.68	6.177
399.89	7.207
400.09	9.194
400.29	7.123
400.50	6.192
400.70	7.698
400.91	6.468
401.11	7.868
401.32	7.267
401.52	6.216
401.72	6.480
401.93	8.243
402.13	7.794
402.34	6.976
402.54	7.267
402.75	9.226
402.95	5.656
403.15	9.074
403.36	5.787
403.56	7.650
403.77	5.150
403.97	7.892
404.17	5.310
404.38	7.471
404.58	6.649
404.79	7.918
404.99	7.622
405.19	8.036
405.40	6.383
405.60	8.132
405.81	7.833
406.01	7.640
406.21	6.093
406.42	7.527
406.62	8.166
406.83	7.528
407.03	8.301
407.23	6.828
407.44	7.111
407.64	8.076
407.85	9.211
408.05	7.578
408.25	6.019
408.46	9.616
408.66	8.182
408.87	7.399
409.07	6.805
409.27	6.061
409.48	8.080
409.68	7.616
409.88	5.872
410.09	9.262
410.29	6.658
410.50	8.523
410.70	5.248
410.90	7.379
411.11	5.954
411.31	7.729
411.51	8.764
411.72	8.588
411.92	6.528
412.12	7.021
412.33	6.251
412.53	7.472
412.74	5.382
412.94	4.773
413.14	7.551
413.35	6.754
413.55	7.088
413.75	7.990
413.96	6.921
414.16	6.855
414.36	7.851
414.57	6.834
414.77	6.958
414.97	7.942
415.18	6.822
415.38	6.787
415.58	6.713
415.79	6.642
415.99	7.062
416.19	6.474
416.40	7.485
416.60	7.724
416.80	5.462
417.01	7.232
417.21	6.141
417.41	9.404
417.62	7.065
417.82	8.023
418.02	6.469
418.23	7.128
418.43	7.413
418.63	7.338
418.84	8.435
419.04	7.938
419.24	7.569
419.45	9.070
419.65	9.038
419.85	8.669
420.06	7.887
420.26	8.908
420.46	8.386
420.67	9.554
420.87	8.727
421.07	9.713
421.28	8.314
421.48	9.791
421.68	9.530
421.88	9.552
422.09	9.574
422.29	9.381
422.49	8.087
422.70	9.815
422.90	8.205
423.10	9.355
423.31	8.586
423.51	9.803
423.71	8.530
423.91	9.900
424.12	9.537
424.32	9.048
424.52	8.934
424.73	9.353
424.93	8.996
425.13	8.915
425.33	7.512
425.54	9.788
425.74	8.698
425.94	10.059
426.15	8.687
426.35	8.734
426.55	9.036
426.75	9.088
426.96	9.758
427.16	8.473
427.36	9.305
427.57	9.993
427.77	8.582
427.97	8.632
428.17	8.774
428.38	8.772
428.58	6.337
428.78	8.005
428.98	7.570
429.19	7.512
429.39	6.106
429.59	8.557
429.79	6.225
430.00	6.425
430.20	6.285
430.40	7.800
430.60	7.317
430.81	8.300
431.01	6.704
431.21	8.111
431.41	7.255
431.62	8.497
431.82	7.846
432.02	8.834
432.22	6.791
432.43	8.335
432.63	5.896
432.83	8.078
433.03	8.117
433.24	7.990
433.44	7.532
433.64	9.212
433.84	7.759
434.05	10.100
434.25	8.116
434.45	9.444
434.65	9.795
434.85	10.576
435.06	9.306
435.26	9.561
435.46	9.502
435.66	10.431
435.87	9.275
436.07	9.965
436.27	9.754
436.47	9.645
436.67	8.679
436.88	10.190
437.08	9.669
437.28	10.160
437.48	8.978
437.69	10.165
437.89	9.847
438.09	10.047
438.29	9.047
438.49	11.350
438.70	10.043
438.90	10.116
439.10	9.424
439.30	10.951
439.50	8.885
439.71	10.820
439.91	10.246
440.11	11.265
440.31	10.960
440.51	10.806
440.72	10.365
440.92	11.491
441.12	11.231
441.32	12.000
441.52	11.694
441.72	11.883
441.93	11.223
442.13	12.522
442.33	11.073
442.53	12.538
442.73	11.539
442.94	11.749
443.14	11.244
443.34	12.266
443.54	12.083
443.74	11.816
443.94	12.208
444.15	11.581
444.35	10.638
444.55	11.750
444.75	11.788
444.95	12.159
445.15	11.567
445.36	12.756
445.56	10.439
445.76	12.122
445.96	11.314
446.16	11.561
446.36	11.293
446.57	12.554
446.77	11.907
446.97	12.551
447.17	12.540
447.37	12.629
447.57	12.096
447.77	13.042
447.98	12.712
448.18	12.891
448.38	12.450
448.58	13.670
448.78	13.382
448.98	13.059
449.18	11.469
449.39	13.272
449.59	11.733
449.79	13.125
449.99	12.352
450.19	13.366
450.39	12.438
450.59	13.153
450.79	11.543
451.00	14.052
451.20	13.255
451.40	12.931
451.60	11.147
451.80	13.522
452.00	12.237
452.20	12.887
452.40	12.239
452.61	11.788
452.81	12.251
453.01	13.077
453.21	11.676
453.41	13.351
453.61	12.080
453.81	13.506
454.01	12.711
454.21	13.759
454.42	13.828
454.62	13.744
454.82	11.577
455.02	12.871
455.22	12.025
455.42	13.226
455.62	11.201
455.82	13.257
456.02	12.338
456.23	12.994
456.43	11.882
456.63	13.380
456.83	12.199
457.03	12.789
457.23	11.791
457.43	13.647
457.63	11.813
457.83	13.635
458.03	12.001
458.23	13.709
458.43	11.975
458.64	12.926
458.84	12.379
459.04	13.066
459.24	12.304
459.44	13.919
459.64	12.863
459.84	13.372
460.04	13.639
460.24	13.589
460.44	13.162
460.64	13.612
460.84	13.321
461.04	13.680
461.24	14.197
461.45	14.137
461.65	14.469
461.85	14.514
462.05	14.236
462.25	14.999
462.45	14.717
462.65	14.993
462.85	14.028
463.05	14.340
463.25	13.527
463.45	14.242
463.65	13.170
463.85	13.530
464.05	12.757
464.25	13.805
464.45	13.616
464.65	14.070
464.85	13.819
465.05	15.240
465.26	13.211
465.46	14.831
465.66	13.413
465.86	15.146
466.06	13.972
466.26	14.555
466.46	13.557
466.66	14.186
466.86	13.364
467.06	13.963
467.26	14.135
467.46	15.318
467.66	14.949
467.86	15.051
468.06	14.057
468.26	14.862
468.46	14.015
468.66	14.993
468.86	12.991
469.06	15.303
469.26	13.967
469.46	15.308
469.66	13.617
469.86	15.961
470.06	14.948
470.26	15.528
470.46	13.979
470.66	15.165
470.86	13.787
471.06	15.313
471.26	13.264
471.46	14.402
471.66	14.883
471.86	15.855
472.06	14.899
472.26	15.230
472.46	15.675
472.66	15.689
472.86	14.834
473.06	15.167
473.26	15.467
473.46	14.885
473.66	15.393
473.86	16.049
474.06	16.053
