SpectraSuite Data File
++++++++++++++++++++++++++++++++++++
Date: Sun Sep 22 02:50:15 EST 2019
User: sgrac
Dark Spectrum Present: Yes
Reference Spectrum Present: Yes
Number of Sampled Component Spectra: 1
Spectrometers: USB4E01596
Integration Time (usec): 100000 (USB4E01596)
Spectra Averaged: 1 (USB4E01596)
Boxcar Smoothing: 0 (USB4E01596)
Correct for Electrical Dark: No (USB4E01596)
Strobe/Lamp Enabled: Yes (USB4E01596)
Correct for Detector Non-linearity: No (USB4E01596)
Correct for Stray Light: No (USB4E01596)
Number of Pixels in Processed Spectrum: 3648
>>>>>Begin Processed Spectral Data<<<<<
178.44	478.571
178.66	478.571
178.87	478.571
179.09	-16.667
179.30	-77.778
179.52	122.581
179.74	4700.000
179.95	511.111
180.17	4600.000
180.38	146.296
180.60	-100.000
180.82	1025.000
181.03	-150.000
181.25	217.391
181.46	-92.857
181.68	-110.000
181.89	197.059
182.11	80.952
182.33	557.143
182.54	72.414
182.76	481.818
182.97	-21.429
183.19	97.436
183.40	-109.524
183.62	48.148
183.84	57.143
184.05	3800.000
184.27	115.000
184.48	74.468
184.70	182.143
184.91	266.667
185.13	-2900.000
185.34	164.286
185.56	-71.429
185.78	143.333
185.99	117.647
186.21	97.826
186.42	1050.000
186.64	25.000
186.85	-100.000
187.07	118.750
187.28	-400.000
187.50	257.143
187.72	163.636
187.93	-87.500
188.15	260.606
188.36	189.189
188.58	81.538
188.79	193.548
189.01	157.692
189.22	-510.000
189.44	93.151
189.65	1250.000
189.87	1040.000
190.09	0.000
190.30	400.000
190.52	-215.385
190.73	326.087
190.95	117.857
191.16	-40.000
191.38	-123.077
191.59	400.000
191.81	94.737
192.02	300.000
192.24	-1750.000
192.45	26.667
192.67	102.083
192.88	90.909
193.10	2100.000
193.31	-364.286
193.53	210.000
193.74	10.256
193.96	108.163
194.18	147.368
194.39	-316.667
194.61	75.000
194.82	85.455
195.04	142.857
195.25	270.000
195.47	-117.647
195.68	-125.000
195.90	81.250
196.11	369.231
196.33	142.593
196.54	187.879
196.76	233.333
196.97	-206.250
197.19	364.286
197.40	275.758
197.62	-27.273
197.83	-262.500
198.05	533.333
198.26	105.970
198.48	60.000
198.69	-159.091
198.91	-800.000
199.12	114.286
199.34	83.333
199.55	178.947
199.77	-73.684
199.98	-138.462
200.20	113.333
200.41	126.316
200.63	153.061
200.84	-700.000
201.06	400.000
201.27	33.333
201.49	-157.143
201.70	0.000
201.91	210.000
202.13	66.667
202.34	114.815
202.56	90.909
202.77	155.172
202.99	-166.667
203.20	-511.111
203.42	77.632
203.63	55.556
203.85	156.604
204.06	146.154
204.28	-6.667
204.49	-1400.000
204.71	89.189
204.92	220.000
205.14	268.182
205.35	90.476
205.56	87.755
205.78	670.000
205.99	8800.000
206.21	229.412
206.42	96.667
206.64	1766.667
206.85	118.750
207.07	83.333
207.28	39.344
207.50	110.714
207.71	216.000
207.93	217.391
208.14	-330.000
208.35	-400.000
208.57	360.000
208.78	123.913
209.00	121.212
209.21	196.970
209.43	163.768
209.64	87.500
209.86	160.606
210.07	161.538
210.28	308.333
210.50	85.000
210.71	119.149
210.93	593.750
211.14	-2100.000
211.36	153.333
211.57	-4100.000
211.78	-1825.000
212.00	73.684
212.21	300.000
212.43	129.787
212.64	18.182
212.86	75.862
213.07	-1000.000
213.29	162.500
213.50	-268.421
213.71	103.279
213.93	670.000
214.14	357.143
214.36	307.692
214.57	186.364
214.78	84.416
215.00	140.000
215.21	105.556
215.43	280.000
215.64	-4200.000
215.86	383.333
216.07	-276.923
216.28	100.000
216.50	-138.462
216.71	540.000
216.93	-35.294
217.14	-52.381
217.35	87.500
217.57	286.667
217.78	311.765
218.00	866.667
218.21	190.566
218.42	466.667
218.64	633.333
218.85	333.333
219.07	-100.000
219.28	-140.741
219.49	18.519
219.71	184.444
219.92	143.590
220.14	134.783
220.35	550.000
220.56	110.526
220.78	56.667
220.99	-883.333
221.21	0.000
221.42	193.103
221.63	90.909
221.85	62.712
222.06	59.184
222.28	168.966
222.49	15.385
222.70	300.000
222.92	144.000
223.13	115.000
223.34	-175.000
223.56	70.130
223.77	89.362
223.99	8.333
224.20	70.732
224.41	54.545
224.63	44.000
224.84	120.690
225.05	122.222
225.27	94.203
225.48	68.000
225.69	54.762
225.91	25.926
226.12	59.155
226.34	41.748
226.55	34.783
226.76	14.035
226.98	39.474
227.19	74.194
227.40	78.125
227.62	29.000
227.83	48.649
228.04	21.649
228.26	23.967
228.47	37.805
228.69	42.604
228.90	23.529
229.11	23.431
229.33	16.807
229.54	21.555
229.75	17.910
229.97	7.207
230.18	3.601
230.39	15.152
230.61	14.330
230.82	26.627
231.03	6.135
231.25	15.679
231.46	20.712
231.67	14.935
231.89	11.481
232.10	0.746
232.31	1.695
232.53	13.248
232.74	26.667
232.95	31.527
233.17	5.859
233.38	3.867
233.59	35.385
233.81	16.000
234.02	29.048
234.23	14.220
234.45	20.856
234.66	12.150
234.87	13.242
235.09	23.618
235.30	18.049
235.51	21.552
235.73	19.615
235.94	0.498
236.15	29.719
236.36	35.688
236.58	11.511
236.79	25.581
237.00	23.675
237.22	25.817
237.43	4.425
237.64	30.531
237.86	7.080
238.07	25.000
238.28	37.327
238.50	20.578
238.71	34.973
238.92	29.268
239.13	12.749
239.35	25.263
239.56	14.706
239.77	25.000
239.99	19.259
240.20	21.802
240.41	7.018
240.63	11.243
240.84	25.893
241.05	16.012
241.26	21.429
241.48	5.288
241.69	9.070
241.90	-2.138
242.12	6.105
242.33	11.775
242.54	8.731
242.75	5.916
242.97	6.612
243.18	10.546
243.39	7.931
243.61	7.958
243.82	4.785
244.03	6.885
244.24	5.251
244.46	7.407
244.67	10.655
244.88	6.495
245.09	5.056
245.31	9.197
245.52	5.108
245.73	6.918
245.95	12.989
246.16	13.240
246.37	12.981
246.58	10.795
246.80	8.482
247.01	8.636
247.22	6.701
247.43	2.516
247.65	3.536
247.86	7.597
248.07	9.169
248.28	3.133
248.50	1.632
248.71	2.262
248.92	1.365
249.13	7.064
249.35	6.213
249.56	4.468
249.77	4.783
249.98	5.263
250.20	2.817
250.41	6.084
250.62	10.722
250.83	4.084
251.05	4.235
251.26	7.725
251.47	8.296
251.68	1.645
251.90	10.951
252.11	7.240
252.32	7.578
252.53	7.636
252.75	4.121
252.96	5.898
253.17	4.337
253.38	9.988
253.59	1.889
253.81	4.370
254.02	8.175
254.23	2.902
254.44	9.320
254.66	5.322
254.87	4.871
255.08	6.699
255.29	15.543
255.50	9.108
255.72	9.252
255.93	6.134
256.14	3.846
256.35	7.828
256.57	16.466
256.78	-4.478
256.99	7.170
257.20	7.298
257.41	5.848
257.63	1.942
257.84	5.759
258.05	13.488
258.26	4.348
258.47	2.899
258.69	5.424
258.90	3.298
259.11	3.747
259.32	4.793
259.53	2.724
259.75	5.180
259.96	2.344
260.17	5.336
260.38	5.411
260.59	4.243
260.81	2.798
261.02	3.616
261.23	3.069
261.44	3.773
261.65	3.126
261.87	1.527
262.08	1.401
262.29	3.840
262.50	1.825
262.71	4.121
262.92	5.675
263.14	3.189
263.35	5.475
263.56	1.992
263.77	6.598
263.98	10.108
264.20	6.704
264.41	7.242
264.62	7.987
264.83	6.586
265.04	8.827
265.25	6.801
265.47	7.787
265.68	1.312
265.89	0.757
266.10	3.556
266.31	9.034
266.52	7.134
266.74	2.138
266.95	6.333
267.16	7.415
267.37	4.167
267.58	3.920
267.79	0.276
268.01	5.525
268.22	6.016
268.43	1.228
268.64	0.626
268.85	5.375
269.06	5.164
269.27	2.682
269.49	3.044
269.70	2.413
269.91	2.739
270.12	2.989
270.33	2.773
270.54	3.455
270.75	6.553
270.97	1.582
271.18	5.685
271.39	1.982
271.60	1.830
271.81	2.002
272.02	6.650
272.23	2.915
272.45	3.612
272.66	4.147
272.87	3.980
273.08	2.354
273.29	2.394
273.50	2.790
273.71	3.578
273.92	-1.175
274.14	4.189
274.35	2.214
274.56	3.844
274.77	5.778
274.98	1.464
275.19	3.097
275.40	3.499
275.61	2.309
275.83	5.037
276.04	4.716
276.25	6.290
276.46	4.016
276.67	5.680
276.88	5.867
277.09	3.728
277.30	3.028
277.51	2.960
277.73	6.672
277.94	3.183
278.15	0.332
278.36	5.546
278.57	1.422
278.78	0.586
278.99	-0.168
279.20	2.508
279.41	6.485
279.62	3.471
279.84	3.701
280.05	4.377
280.26	2.920
280.47	3.434
280.68	9.360
280.89	6.286
281.10	6.275
281.31	4.344
281.52	6.764
281.73	2.027
281.94	-0.625
282.16	1.460
282.37	6.288
282.58	3.404
282.79	3.436
283.00	3.706
283.21	4.435
283.42	2.334
283.63	4.348
283.84	1.790
284.05	3.164
284.26	4.951
284.47	2.758
284.68	4.180
284.89	4.212
285.11	3.272
285.32	5.355
285.53	3.792
285.74	3.712
285.95	2.397
286.16	2.009
286.37	3.513
286.58	3.459
286.79	1.532
287.00	4.464
287.21	1.290
287.42	2.175
287.63	1.642
287.84	2.495
288.05	5.358
288.26	3.337
288.48	4.111
288.69	4.372
288.90	2.359
289.11	6.287
289.32	4.486
289.53	2.567
289.74	2.747
289.95	2.098
290.16	1.010
290.37	5.513
290.58	2.308
290.79	2.720
291.00	-1.185
291.21	2.130
291.42	5.329
291.63	1.830
291.84	3.088
292.05	0.594
292.26	3.686
292.47	2.400
292.68	4.689
292.89	2.838
293.10	3.023
293.31	4.586
293.52	6.982
293.73	2.922
293.94	2.771
294.15	4.874
294.36	5.066
294.57	6.659
294.79	3.144
295.00	2.025
295.21	4.046
295.42	1.672
295.63	1.618
295.84	2.467
296.05	4.053
296.26	3.276
296.47	0.822
296.68	1.972
296.89	2.532
297.10	4.267
297.31	4.699
297.52	3.794
297.73	3.337
297.94	1.981
298.15	2.153
298.36	0.863
298.57	2.446
298.78	3.559
298.99	1.882
299.20	2.762
299.41	1.296
299.62	1.971
299.83	4.703
300.04	1.894
300.25	1.787
300.46	2.786
300.67	2.931
300.88	1.742
301.09	2.667
301.30	3.326
301.50	0.159
301.71	4.508
301.92	5.631
302.13	1.100
302.34	3.470
302.55	2.790
302.76	1.518
302.97	-0.116
303.18	4.713
303.39	2.620
303.60	1.380
303.81	1.558
304.02	0.169
304.23	1.642
304.44	2.580
304.65	3.508
304.86	4.598
305.07	1.906
305.28	2.673
305.49	4.394
305.70	3.485
305.91	3.022
306.12	2.893
306.33	2.382
306.54	3.661
306.75	0.351
306.96	4.444
307.17	1.294
307.38	5.629
307.58	2.647
307.79	2.049
308.00	1.773
308.21	4.583
308.42	2.920
308.63	3.878
308.84	4.902
309.05	4.429
309.26	4.226
309.47	2.330
309.68	3.110
309.89	1.535
310.10	3.499
310.31	2.757
310.52	1.818
310.73	2.941
310.94	2.440
311.14	1.964
311.35	2.659
311.56	3.594
311.77	2.832
311.98	1.170
312.19	2.889
312.40	1.598
312.61	3.494
312.82	1.327
313.03	3.383
313.24	1.980
313.45	3.632
313.66	2.127
313.86	1.808
314.07	4.574
314.28	4.532
314.49	4.476
314.70	3.978
314.91	3.872
315.12	1.593
315.33	2.725
315.54	3.047
315.75	1.666
315.96	0.338
316.16	3.593
316.37	5.505
316.58	2.675
316.79	2.453
317.00	1.870
317.21	3.978
317.42	3.299
317.63	1.936
317.84	0.732
318.05	3.857
318.25	3.721
318.46	3.733
318.67	3.964
318.88	1.374
319.09	2.629
319.30	0.228
319.51	4.076
319.72	3.583
319.93	3.935
320.13	1.494
320.34	3.857
320.55	1.462
320.76	6.598
320.97	2.336
321.18	4.154
321.39	3.546
321.60	0.183
321.80	1.176
322.01	4.200
322.22	4.794
322.43	2.977
322.64	4.054
322.85	2.781
323.06	1.149
323.27	2.278
323.47	2.449
323.68	3.182
323.89	0.968
324.10	6.004
324.31	1.709
324.52	4.006
324.73	4.782
324.93	2.092
325.14	3.707
325.35	3.519
325.56	1.971
325.77	4.845
325.98	2.255
326.19	-0.101
326.39	3.172
326.60	4.372
326.81	0.151
327.02	0.392
327.23	1.938
327.44	3.614
327.64	2.564
327.85	1.772
328.06	2.873
328.27	2.979
328.48	4.196
328.69	3.064
328.90	2.634
329.10	1.990
329.31	-0.317
329.52	2.134
329.73	1.606
329.94	2.597
330.15	1.340
330.35	1.820
330.56	3.864
330.77	-1.237
330.98	3.238
331.19	3.925
331.39	1.816
331.60	5.008
331.81	1.541
332.02	2.524
332.23	2.144
332.44	2.524
332.64	1.442
332.85	3.382
333.06	4.088
333.27	1.393
333.48	2.599
333.68	2.185
333.89	2.089
334.10	1.038
334.31	5.005
334.52	2.832
334.72	3.547
334.93	2.443
335.14	3.145
335.35	3.638
335.56	3.164
335.76	0.711
335.97	3.342
336.18	5.059
336.39	2.599
336.60	2.797
336.80	4.520
337.01	1.394
337.22	3.351
337.43	2.202
337.64	1.882
337.84	1.397
338.05	2.122
338.26	4.384
338.47	3.524
338.68	2.675
338.88	4.130
339.09	1.886
339.30	1.826
339.51	1.630
339.71	1.944
339.92	3.283
340.13	3.742
340.34	3.009
340.55	2.261
340.75	2.545
340.96	2.160
341.17	4.764
341.38	2.399
341.58	3.193
341.79	2.745
342.00	1.120
342.21	2.860
342.41	-0.466
342.62	1.974
342.83	2.642
343.04	1.260
343.24	2.994
343.45	4.344
343.66	4.939
343.87	4.966
344.07	2.318
344.28	2.260
344.49	1.709
344.70	2.140
344.90	2.342
345.11	2.405
345.32	2.219
345.53	1.281
345.73	5.481
345.94	4.501
346.15	2.956
346.36	4.671
346.56	3.802
346.77	3.983
346.98	4.680
347.19	4.123
347.39	1.531
347.60	2.671
347.81	2.562
348.02	3.803
348.22	2.769
348.43	3.287
348.64	1.819
348.84	3.527
349.05	2.789
349.26	5.809
349.47	4.251
349.67	3.477
349.88	4.982
350.09	4.582
350.30	7.440
350.50	4.380
350.71	4.611
350.92	4.945
351.12	4.882
351.33	4.525
351.54	5.671
351.74	5.295
351.95	5.441
352.16	4.684
352.37	7.295
352.57	4.500
352.78	4.623
352.99	6.345
353.19	5.193
353.40	3.968
353.61	8.517
353.82	7.086
354.02	6.277
354.23	6.122
354.44	6.750
354.64	7.076
354.85	7.120
355.06	6.019
355.26	4.195
355.47	7.425
355.68	7.797
355.88	10.034
356.09	10.137
356.30	6.150
356.51	8.993
356.71	8.968
356.92	5.286
357.13	10.752
357.33	11.763
357.54	9.530
357.75	5.646
357.95	11.857
358.16	7.959
358.37	15.254
358.57	7.778
358.78	13.060
358.99	8.930
359.19	9.572
359.40	10.251
359.61	9.854
359.81	12.512
360.02	14.272
360.23	7.934
360.43	9.660
360.64	8.505
360.85	10.198
361.05	7.855
361.26	14.451
361.47	11.383
361.67	15.941
361.88	9.397
362.09	14.384
362.29	10.389
362.50	11.863
362.70	8.239
362.91	15.866
363.12	11.272
363.32	12.401
363.53	13.078
363.74	15.210
363.94	8.070
364.15	16.896
364.36	13.219
364.56	11.441
364.77	13.883
364.98	16.490
365.18	10.927
365.39	14.481
365.59	8.595
365.80	11.199
366.01	13.054
366.21	10.936
366.42	10.576
366.63	15.034
366.83	10.891
367.04	8.336
367.24	12.854
367.45	10.771
367.66	7.960
367.86	11.587
368.07	11.128
368.28	11.881
368.48	10.440
368.69	9.418
368.89	9.851
369.10	10.558
369.31	9.113
369.51	11.414
369.72	11.825
369.92	13.965
370.13	9.410
370.34	12.973
370.54	2.989
370.75	10.642
370.95	7.955
371.16	11.565
371.37	9.088
371.57	11.293
371.78	8.754
371.98	12.338
372.19	10.322
372.40	13.495
372.60	10.486
372.81	11.726
373.01	8.293
373.22	10.202
373.43	11.552
373.63	12.147
373.84	8.673
374.04	12.069
374.25	11.384
374.46	12.249
374.66	10.365
374.87	12.587
375.07	7.267
375.28	8.959
375.48	10.253
375.69	12.592
375.90	6.285
376.10	7.441
376.31	7.714
376.51	8.343
376.72	8.952
376.92	8.067
377.13	11.408
377.34	13.354
377.54	10.087
377.75	11.889
377.95	9.370
378.16	12.448
378.36	11.511
378.57	12.787
378.77	10.922
378.98	13.100
379.19	9.556
379.39	9.766
379.60	9.005
379.80	10.813
380.01	11.680
380.21	8.232
380.42	11.100
380.62	10.135
380.83	11.011
381.04	9.421
381.24	11.017
381.45	11.428
381.65	8.068
381.86	11.517
382.06	9.865
382.27	6.487
382.47	7.895
382.68	11.400
382.88	6.717
383.09	7.380
383.29	6.973
383.50	11.980
383.71	9.272
383.91	10.336
384.12	8.268
384.32	11.617
384.53	8.044
384.73	6.267
384.94	7.047
385.14	8.550
385.35	8.684
385.55	9.380
385.76	7.593
385.96	9.446
386.17	9.905
386.37	10.300
386.58	7.801
386.78	11.030
386.99	6.732
387.19	9.978
387.40	7.713
387.60	13.201
387.81	7.272
388.01	9.546
388.22	8.780
388.42	11.563
388.63	10.795
388.83	12.495
389.04	5.267
389.24	8.797
389.45	6.706
389.65	8.124
389.86	7.153
390.06	7.618
390.27	6.140
390.47	8.944
390.68	7.334
390.88	10.192
391.09	9.496
391.29	11.080
391.50	7.373
391.70	10.400
391.91	7.653
392.11	9.345
392.32	10.047
392.52	11.496
392.73	9.327
392.93	10.074
393.14	8.309
393.34	9.291
393.55	8.962
393.75	10.385
393.95	9.183
394.16	10.590
394.36	10.151
394.57	10.980
394.77	8.885
394.98	8.222
395.18	10.191
395.39	9.420
395.59	9.566
395.80	8.509
396.00	8.189
396.21	10.271
396.41	6.940
396.61	10.432
396.82	9.105
397.02	10.755
397.23	10.533
397.43	8.693
397.64	5.354
397.84	11.049
398.05	5.130
398.25	10.237
398.45	6.531
398.66	10.415
398.86	7.665
399.07	11.558
399.27	6.567
399.48	10.176
399.68	7.524
399.89	7.781
400.09	8.878
400.29	8.078
400.50	7.684
400.70	9.649
400.91	6.625
401.11	7.562
401.32	7.549
401.52	6.577
401.72	7.611
401.93	10.766
402.13	6.966
402.34	7.712
402.54	6.898
402.75	11.232
402.95	4.937
403.15	11.590
403.36	8.201
403.56	8.879
403.77	6.798
403.97	8.926
404.17	8.135
404.38	9.341
404.58	6.071
404.79	8.682
404.99	8.779
405.19	8.145
405.40	7.912
405.60	9.452
405.81	6.969
406.01	9.292
406.21	6.455
406.42	9.035
406.62	7.779
406.83	8.788
407.03	9.541
407.23	6.405
407.44	7.694
407.64	8.845
407.85	6.892
408.05	7.778
408.25	6.386
408.46	9.503
408.66	8.003
408.87	7.286
409.07	6.636
409.27	6.732
409.48	5.858
409.68	8.112
409.88	5.770
410.09	8.221
410.29	7.847
410.50	9.420
410.70	5.423
410.90	8.383
411.11	6.218
411.31	6.597
411.51	8.256
411.72	9.566
411.92	6.596
412.12	6.480
412.33	6.465
412.53	6.843
412.74	4.061
412.94	5.887
413.14	6.190
413.35	6.785
413.55	5.643
413.75	8.556
413.96	6.078
414.16	6.657
414.36	7.484
414.57	7.440
414.77	5.231
414.97	7.870
415.18	5.450
415.38	6.187
415.58	6.898
415.79	6.359
415.99	6.339
416.19	7.462
416.40	7.362
416.60	6.398
416.80	6.702
417.01	7.949
417.21	5.268
417.41	10.144
417.62	7.472
417.82	7.979
418.02	5.957
418.23	9.217
418.43	7.288
418.63	8.407
418.84	8.372
419.04	8.405
419.24	10.271
419.45	10.550
419.65	10.135
419.85	10.584
420.06	9.183
420.26	10.848
420.46	10.131
420.67	10.865
420.87	9.828
421.07	11.107
421.28	9.853
421.48	11.512
421.68	10.208
421.88	11.549
422.09	10.375
422.29	10.928
422.49	10.402
422.70	11.585
422.90	10.230
423.10	10.668
423.31	10.468
423.51	11.013
423.71	9.786
423.91	11.153
424.12	10.230
424.32	11.062
424.52	10.348
424.73	10.846
424.93	10.488
425.13	10.889
425.33	10.116
425.54	11.032
425.74	10.338
425.94	11.248
426.15	10.903
426.35	10.120
426.55	10.349
426.75	10.267
426.96	9.263
427.16	9.667
427.36	9.500
427.57	9.278
427.77	8.194
427.97	9.619
428.17	9.477
428.38	9.561
428.58	6.436
428.78	8.703
428.98	6.618
429.19	8.100
429.39	6.156
429.59	8.004
429.79	5.529
430.00	7.027
430.20	5.809
430.40	8.245
430.60	6.654
430.81	8.002
431.01	6.878
431.21	9.108
431.41	6.227
431.62	8.032
431.82	6.154
432.02	9.715
432.22	6.772
432.43	7.590
432.63	5.540
432.83	8.171
433.03	7.507
433.24	7.952
433.44	6.853
433.64	8.963
433.84	8.392
434.05	9.129
434.25	8.482
434.45	10.648
434.65	9.363
434.85	10.392
435.06	9.179
435.26	9.817
435.46	8.790
435.66	9.660
435.87	7.665
436.07	8.622
436.27	7.925
436.47	7.967
436.67	6.354
436.88	8.412
437.08	8.465
437.28	8.360
437.48	7.265
437.69	9.006
437.89	8.041
438.09	9.726
438.29	7.479
438.49	9.385
438.70	9.020
438.90	8.793
439.10	8.697
439.30	8.946
439.50	7.872
439.71	9.646
439.91	8.685
440.11	10.181
440.31	9.475
440.51	9.447
440.72	8.852
440.92	9.964
441.12	9.228
441.32	10.742
441.52	9.884
441.72	10.396
441.93	10.077
442.13	10.602
442.33	8.986
442.53	10.481
442.73	8.320
442.94	10.354
443.14	9.058
443.34	10.931
443.54	9.506
443.74	10.030
443.94	8.605
444.15	9.006
444.35	7.932
444.55	10.041
444.75	8.444
444.95	9.722
445.15	9.551
445.36	9.317
445.56	7.817
445.76	10.201
445.96	9.475
446.16	9.997
446.36	9.125
446.57	10.608
446.77	9.484
446.97	10.140
447.17	10.843
447.37	10.848
447.57	10.257
447.77	10.377
447.98	10.069
448.18	10.740
448.38	9.947
448.58	10.548
448.78	9.571
448.98	10.391
449.18	9.535
449.39	10.176
449.59	8.952
449.79	9.941
449.99	8.601
450.19	9.791
450.39	9.803
450.59	9.845
450.79	8.020
451.00	10.377
451.20	8.373
451.40	8.637
451.60	7.624
451.80	9.686
452.00	7.316
452.20	8.769
452.40	7.942
452.61	8.832
452.81	8.562
453.01	9.320
453.21	9.032
453.41	9.778
453.61	8.362
453.81	9.216
454.01	8.587
454.21	9.111
454.42	8.410
454.62	9.080
454.82	8.036
455.02	8.345
455.22	6.993
455.42	7.759
455.62	7.163
455.82	8.656
456.02	6.670
456.23	9.038
456.43	7.799
456.63	8.924
456.83	6.480
457.03	8.966
457.23	6.823
457.43	8.075
457.63	6.999
457.83	8.800
458.03	6.757
458.23	8.757
458.43	6.552
458.64	8.596
458.84	7.852
459.04	8.680
459.24	8.849
459.44	9.400
459.64	8.831
459.84	10.171
460.04	9.054
460.24	9.916
460.44	9.823
460.64	10.974
460.84	9.582
461.04	10.212
461.24	10.334
461.45	10.536
461.65	9.999
461.85	10.594
462.05	9.557
462.25	10.120
462.45	9.766
462.65	9.758
462.85	7.311
463.05	8.801
463.25	6.858
463.45	9.245
463.65	7.808
463.85	8.980
464.05	7.851
464.25	8.059
464.45	8.278
464.65	8.528
464.85	6.501
465.05	8.204
465.26	8.387
465.46	9.191
465.66	8.372
465.86	8.399
466.06	7.555
466.26	9.001
466.46	6.624
466.66	8.247
466.86	7.316
467.06	8.744
467.26	7.730
467.46	8.938
467.66	8.227
467.86	8.908
468.06	7.876
468.26	8.584
468.46	8.201
468.66	8.670
468.86	6.161
469.06	9.613
469.26	6.965
469.46	8.395
469.66	7.049
469.86	9.049
470.06	7.960
470.26	9.038
470.46	6.645
470.66	9.592
470.86	7.357
471.06	8.353
471.26	6.759
471.46	8.052
471.66	7.091
471.86	8.071
472.06	8.036
472.26	9.383
472.46	8.843
472.66	8.594
472.86	7.276
473.06	8.881
473.26	7.538
473.46	8.498
473.66	8.188
473.86	9.680
474.06	7.773
474.26	9.216
474.46	7.607
474.66	9.232
474.86	8.134
475.06	9.529
475.26	6.483
475.46	9.046
475.66	7.371
475.86	9.231
476.06	8.965
476.26	9.852
476.46	8.146
476.66	9.426
476.86	7.930
477.06	8.814
477.26	7.331
