SpectraSuite Data File
++++++++++++++++++++++++++++++++++++
Date: Sun Sep 22 03:34:36 EST 2019
User: sgrac
Dark Spectrum Present: Yes
Reference Spectrum Present: Yes
Number of Sampled Component Spectra: 1
Spectrometers: USB4E01596
Integration Time (usec): 100000 (USB4E01596)
Spectra Averaged: 3 (USB4E01596)
Boxcar Smoothing: 0 (USB4E01596)
Correct for Electrical Dark: No (USB4E01596)
Strobe/Lamp Enabled: Yes (USB4E01596)
Correct for Detector Non-linearity: No (USB4E01596)
Correct for Stray Light: No (USB4E01596)
Number of Pixels in Processed Spectrum: 3648
>>>>>Begin Processed Spectral Data<<<<<
178.44	723.810
178.66	723.810
178.87	723.810
179.09	-179.630
179.30	-412.963
179.52	210.753
179.74	11700.000
179.95	1125.926
180.17	10200.000
180.38	314.815
180.60	-562.500
180.82	2933.333
181.03	-271.111
181.25	500.000
181.46	-195.238
181.68	-381.667
181.89	414.706
182.11	528.571
182.33	1895.238
182.54	252.874
182.76	1015.152
182.97	-769.048
183.19	321.368
183.40	-447.619
183.62	253.086
183.84	369.524
184.05	11000.000
184.27	355.000
184.48	241.135
184.70	526.190
184.91	766.667
185.13	-6650.000
185.34	892.857
185.56	-542.857
185.78	347.778
185.99	349.020
186.21	236.232
186.42	2508.333
186.64	144.737
186.85	-391.667
187.07	377.083
187.28	-2375.000
187.50	995.238
187.72	1021.212
187.93	-666.667
188.15	455.556
188.36	345.045
188.58	182.564
188.79	361.290
189.01	489.744
189.22	-1233.333
189.44	187.671
189.65	4766.667
189.87	2453.333
190.09	0.000
190.30	913.889
190.52	-417.949
190.73	646.377
190.95	434.524
191.16	656.667
191.38	-964.103
191.59	12133.333
191.81	233.333
192.02	917.778
192.24	-6750.000
192.45	-662.222
192.67	336.806
192.88	210.101
193.10	11433.333
193.31	-730.952
193.53	1326.667
193.74	270.940
193.96	240.816
194.18	314.912
194.39	-2155.556
194.61	902.778
194.82	209.697
195.04	1409.524
195.25	1006.667
195.47	-466.667
195.68	-289.286
195.90	311.458
196.11	876.923
196.33	296.914
196.54	419.192
196.76	1661.111
196.97	-460.417
197.19	816.667
197.40	437.374
197.62	310.101
197.83	-1187.500
198.05	2300.000
198.26	192.040
198.48	902.222
198.69	-430.303
198.91	-3622.222
199.12	408.571
199.34	241.358
199.55	491.228
199.77	-510.526
199.98	-900.000
200.20	305.926
200.41	416.667
200.63	255.102
200.84	-1229.167
201.06	2013.333
201.27	427.778
201.49	-1385.714
201.70	0.000
201.91	671.667
202.13	234.722
202.34	409.877
202.56	963.636
202.77	439.080
202.99	-783.333
203.20	-951.852
203.42	185.088
203.63	310.185
203.85	247.799
204.06	784.615
204.28	628.889
204.49	-9700.000
204.71	340.541
204.92	541.111
205.14	475.758
205.35	484.127
205.56	253.061
205.78	1310.000
205.99	8500.000
206.21	737.255
206.42	236.667
206.64	4322.222
206.85	217.361
207.07	191.667
207.28	215.847
207.50	442.857
207.71	430.667
207.93	557.971
208.14	-1073.333
208.35	-2744.444
208.57	1106.667
208.78	260.870
209.00	208.081
209.21	371.717
209.43	155.556
209.64	1279.167
209.86	311.111
210.07	869.231
210.28	822.222
210.50	335.833
210.71	295.745
210.93	741.667
211.14	-10233.333
211.36	317.778
211.57	-10300.000
211.78	-2908.333
212.00	366.667
212.21	1260.000
212.43	300.000
212.64	633.333
212.86	383.908
213.07	-3033.333
213.29	262.500
213.50	-624.561
213.71	217.486
213.93	1266.667
214.14	930.952
214.36	828.205
214.57	537.879
214.78	174.892
215.00	218.095
215.21	581.481
215.43	524.000
215.64	-8800.000
215.86	872.222
216.07	-710.256
216.28	926.667
216.50	-432.051
216.71	1900.000
216.93	713.725
217.14	-463.492
217.35	195.312
217.57	928.889
217.78	554.902
218.00	3244.444
218.21	266.667
218.42	1181.481
218.64	3688.889
218.85	1466.667
219.07	-874.074
219.28	-455.556
219.49	440.741
219.71	282.222
219.92	343.590
220.14	478.261
220.35	4566.667
220.56	222.807
220.78	434.444
220.99	-1533.333
221.21	0.000
221.42	319.540
221.63	796.970
221.85	240.678
222.06	229.252
222.28	289.655
222.49	462.821
222.70	976.667
222.92	274.667
223.13	212.222
223.34	-650.000
223.56	182.684
223.77	214.184
223.99	669.444
224.20	222.764
224.41	328.788
224.63	164.889
224.84	347.126
225.05	180.952
225.27	164.734
225.48	216.667
225.69	227.778
225.91	123.457
226.12	212.207
226.34	98.382
226.55	124.638
226.76	178.363
226.98	154.825
227.19	195.161
227.40	287.500
227.62	115.333
227.83	96.622
228.04	115.464
228.26	77.135
228.47	142.683
228.69	76.134
228.90	55.294
229.11	63.180
229.33	50.700
229.54	43.581
229.75	47.264
229.97	46.847
230.18	35.642
230.39	26.566
230.61	33.541
230.82	53.846
231.03	23.517
231.25	43.206
231.46	42.718
231.67	46.537
231.89	45.556
232.10	53.109
232.31	39.548
232.53	41.026
232.74	45.417
232.95	52.874
233.17	50.260
233.38	51.934
233.59	70.256
233.81	55.667
234.02	53.016
234.23	36.697
234.45	65.775
234.66	45.950
234.87	57.078
235.09	69.012
235.30	45.528
235.51	56.466
235.73	46.538
235.94	58.706
236.15	53.949
236.36	59.232
236.58	34.293
236.79	45.090
237.00	54.417
237.22	45.098
237.43	41.150
237.64	50.885
237.86	50.590
238.07	58.099
238.28	56.375
238.50	50.181
238.71	52.095
238.92	51.336
239.13	47.278
239.35	48.421
239.56	51.961
239.77	57.449
239.99	38.148
240.20	43.895
240.41	40.789
240.63	43.590
240.84	48.214
241.05	25.780
241.26	38.381
241.48	23.798
241.69	28.118
241.90	18.686
242.12	23.368
242.33	17.271
242.54	21.417
242.75	24.050
242.97	25.344
243.18	19.653
243.39	15.939
243.61	20.261
243.82	22.209
244.03	19.601
244.24	15.449
244.46	20.370
244.67	24.262
244.88	18.854
245.09	17.463
245.31	23.021
245.52	19.195
245.73	23.847
245.95	32.968
246.16	24.507
246.37	20.673
246.58	22.189
246.80	18.605
247.01	19.621
247.22	12.715
247.43	13.824
247.65	16.530
247.86	16.382
248.07	13.311
248.28	11.575
248.50	12.178
248.71	12.388
248.92	12.375
249.13	13.891
249.35	14.078
249.56	12.615
249.77	13.004
249.98	14.337
250.20	16.101
250.41	19.398
250.62	21.585
250.83	16.007
251.05	19.809
251.26	19.522
251.47	21.778
251.68	16.831
251.90	19.356
252.11	23.027
252.32	22.536
252.53	21.537
252.75	18.086
252.96	21.581
253.17	14.096
253.38	16.013
253.59	12.161
253.81	15.081
254.02	15.719
254.23	19.789
254.44	20.865
254.66	14.939
254.87	16.692
255.08	21.797
255.29	23.658
255.50	23.110
255.72	24.672
255.93	25.527
256.14	19.952
256.35	24.201
256.57	26.104
256.78	19.758
256.99	23.019
257.20	34.648
257.41	21.313
257.63	17.023
257.84	22.978
258.05	25.788
258.26	15.631
258.47	18.626
258.69	15.716
258.90	10.598
259.11	19.477
259.32	15.614
259.53	12.484
259.75	12.965
259.96	7.815
260.17	10.843
260.38	10.343
260.59	11.216
260.81	11.264
261.02	10.107
261.23	10.635
261.44	10.698
261.65	10.250
261.87	8.952
262.08	9.380
262.29	9.919
262.50	9.419
262.71	12.340
262.92	14.187
263.14	9.866
263.35	13.944
263.56	11.845
263.77	15.533
263.98	16.308
264.20	16.834
264.41	15.761
264.62	17.698
264.83	16.648
265.04	16.057
265.25	17.548
265.47	15.073
265.68	15.986
265.89	10.425
266.10	15.220
266.31	16.688
266.52	19.461
266.74	14.568
266.95	13.519
267.16	17.691
267.37	12.986
267.58	13.703
267.79	9.559
268.01	12.922
268.22	15.286
268.43	14.006
268.64	12.493
268.85	13.436
269.06	11.175
269.27	14.389
269.49	11.685
269.70	13.435
269.91	12.397
270.12	10.931
270.33	12.194
270.54	11.879
270.75	15.036
270.97	12.156
271.18	14.872
271.39	10.157
271.60	12.729
271.81	9.901
272.02	13.112
272.23	11.516
272.45	10.741
272.66	7.049
272.87	12.267
273.08	9.191
273.29	11.902
273.50	10.252
273.71	9.673
273.92	6.527
274.14	10.698
274.35	7.949
274.56	9.985
274.77	11.172
274.98	10.088
275.19	10.669
275.40	11.534
275.61	11.830
275.83	12.646
276.04	13.376
276.25	15.446
276.46	12.129
276.67	15.493
276.88	14.064
277.09	12.510
277.30	10.584
277.51	11.864
277.73	14.637
277.94	11.418
278.15	10.761
278.36	14.286
278.57	7.644
278.78	11.967
278.99	9.392
279.20	12.375
279.41	15.046
279.62	9.421
279.84	11.018
280.05	13.917
280.26	11.544
280.47	12.339
280.68	17.120
280.89	13.896
281.10	13.257
281.31	14.249
281.52	12.529
281.73	9.899
281.94	10.174
282.16	10.607
282.37	11.382
282.58	8.700
282.79	11.191
283.00	10.793
283.21	11.425
283.42	10.638
283.63	10.476
283.84	13.001
284.05	9.926
284.26	9.989
284.47	9.942
284.68	10.418
284.89	11.444
285.11	9.259
285.32	9.963
285.53	9.743
285.74	10.794
285.95	9.589
286.16	8.166
286.37	9.369
286.58	7.495
286.79	6.986
287.00	9.607
287.21	6.882
287.42	7.794
287.63	8.107
287.84	8.690
288.05	10.373
288.26	8.436
288.48	11.212
288.69	9.025
288.90	8.704
289.11	10.791
289.32	11.005
289.53	8.856
289.74	7.988
289.95	7.594
290.16	7.918
290.37	10.529
290.58	9.290
290.79	8.814
291.00	5.963
291.21	7.277
291.42	8.715
291.63	9.052
291.84	9.514
292.05	5.184
292.26	7.462
292.47	7.529
292.68	10.360
292.89	9.256
293.10	9.884
293.31	9.759
293.52	9.310
293.73	8.052
293.94	6.916
294.15	8.102
294.36	9.694
294.57	11.542
294.79	9.988
295.00	7.035
295.21	9.984
295.42	10.073
295.63	7.606
295.84	7.091
296.05	9.561
296.26	6.171
296.47	6.180
296.68	6.488
296.89	6.935
297.10	9.184
297.31	9.176
297.52	6.062
297.73	7.882
297.94	5.863
298.15	6.778
298.36	6.486
298.57	6.203
298.78	7.041
298.99	5.606
299.20	6.458
299.41	7.209
299.62	5.727
299.83	6.579
300.04	6.205
300.25	8.100
300.46	9.784
300.67	7.112
300.88	8.026
301.09	6.151
301.30	9.397
301.50	5.523
301.71	9.442
301.92	10.698
302.13	6.615
302.34	7.592
302.55	7.821
302.76	7.899
302.97	5.203
303.18	8.360
303.39	7.469
303.60	7.119
303.81	6.482
304.02	7.566
304.23	6.285
304.44	6.823
304.65	8.491
304.86	8.945
305.07	7.244
305.28	8.165
305.49	8.825
305.70	10.546
305.91	7.879
306.12	6.844
306.33	7.714
306.54	7.876
306.75	8.104
306.96	13.295
307.17	7.020
307.38	8.884
307.58	8.263
307.79	9.582
308.00	6.805
308.21	9.636
308.42	8.577
308.63	7.697
308.84	9.189
309.05	9.180
309.26	7.885
309.47	6.250
309.68	7.078
309.89	8.547
310.10	7.154
310.31	7.533
310.52	7.305
310.73	8.660
310.94	4.619
311.14	6.274
311.35	5.239
311.56	8.936
311.77	7.168
311.98	4.985
312.19	6.783
312.40	6.569
312.61	6.782
312.82	6.460
313.03	6.709
313.24	7.051
313.45	6.776
313.66	6.318
313.86	6.647
314.07	7.624
314.28	8.416
314.49	7.934
314.70	7.139
314.91	9.035
315.12	6.407
315.33	8.231
315.54	7.694
315.75	5.588
315.96	5.844
316.16	8.256
316.37	8.311
316.58	6.563
316.79	6.969
317.00	9.954
317.21	7.902
317.42	9.492
317.63	7.909
317.84	6.753
318.05	7.658
318.25	8.721
318.46	6.618
318.67	8.475
318.88	6.392
319.09	8.464
319.30	5.156
319.51	9.904
319.72	7.353
319.93	7.626
320.13	8.889
320.34	9.566
320.55	8.736
320.76	10.940
320.97	6.659
321.18	9.889
321.39	8.834
321.60	6.805
321.80	8.148
322.01	8.544
322.22	8.953
322.43	7.230
322.64	8.794
322.85	8.817
323.06	8.732
323.27	7.457
323.47	9.538
323.68	7.973
323.89	6.549
324.10	8.767
324.31	5.549
324.52	8.406
324.73	7.102
324.93	6.557
325.14	8.752
325.35	8.309
325.56	7.393
325.77	10.368
325.98	6.419
326.19	5.025
326.39	5.494
326.60	8.295
326.81	5.879
327.02	5.662
327.23	5.233
327.44	7.038
327.64	6.690
327.85	5.029
328.06	7.628
328.27	9.831
328.48	7.954
328.69	5.692
328.90	6.147
329.10	6.168
329.31	6.765
329.52	8.236
329.73	7.254
329.94	7.774
330.15	7.966
330.35	6.995
330.56	7.447
330.77	5.812
330.98	7.843
331.19	6.431
331.39	7.710
331.60	7.707
331.81	8.769
332.02	7.232
332.23	8.301
332.44	6.480
332.64	6.478
332.85	7.568
333.06	7.893
333.27	6.877
333.48	7.187
333.68	7.076
333.89	7.251
334.10	6.006
334.31	8.795
334.52	7.604
334.72	6.456
334.93	8.408
335.14	7.855
335.35	7.799
335.56	6.789
335.76	4.031
335.97	6.618
336.18	7.541
336.39	6.621
336.60	8.309
336.80	6.993
337.01	4.920
337.22	8.664
337.43	7.914
337.64	7.169
337.84	7.371
338.05	6.473
338.26	8.833
338.47	8.528
338.68	6.929
338.88	8.353
339.09	6.190
339.30	5.665
339.51	6.117
339.71	6.543
339.92	7.786
340.13	7.795
340.34	6.972
340.55	5.778
340.75	8.184
340.96	5.367
341.17	8.329
341.38	6.177
341.58	8.208
341.79	6.215
342.00	7.096
342.21	7.671
342.41	5.791
342.62	5.892
342.83	6.074
343.04	4.933
343.24	7.148
343.45	7.031
343.66	8.398
343.87	7.977
344.07	5.840
344.28	5.365
344.49	6.953
344.70	8.114
344.90	5.270
345.11	6.301
345.32	6.642
345.53	5.921
345.73	8.313
345.94	7.313
346.15	7.674
346.36	6.770
346.56	7.095
346.77	6.781
346.98	6.934
347.19	7.144
347.39	5.130
347.60	5.018
347.81	6.230
348.02	6.752
348.22	4.772
348.43	6.315
348.64	5.087
348.84	6.701
349.05	5.171
349.26	7.372
349.47	7.113
349.67	6.070
349.88	7.201
350.09	5.867
350.30	9.315
350.50	6.631
350.71	5.400
350.92	6.067
351.12	6.944
351.33	6.863
351.54	7.602
351.74	6.576
351.95	5.033
352.16	5.953
352.37	6.433
352.57	5.423
352.78	6.064
352.99	7.345
353.19	6.152
353.40	5.150
353.61	8.805
353.82	8.684
354.02	5.675
354.23	5.189
354.44	7.754
354.64	6.389
354.85	5.389
355.06	6.731
355.26	4.626
355.47	6.948
355.68	7.331
355.88	7.255
356.09	6.163
356.30	4.788
356.51	5.958
356.71	4.941
356.92	4.375
357.13	7.264
357.33	7.378
357.54	4.926
357.75	5.206
357.95	6.146
358.16	4.525
358.37	7.561
358.57	5.122
358.78	7.106
358.99	5.964
359.19	6.656
359.40	5.803
359.61	5.932
359.81	6.579
360.02	6.428
360.23	5.628
360.43	5.381
360.64	5.286
360.85	5.592
361.05	3.819
361.26	7.444
361.47	5.758
361.67	6.533
361.88	4.958
362.09	5.793
362.29	4.604
362.50	4.856
362.70	3.978
362.91	6.082
363.12	5.578
363.32	5.464
363.53	6.079
363.74	5.566
363.94	5.280
364.15	6.506
364.36	5.978
364.56	5.121
364.77	7.193
364.98	8.145
365.18	6.192
365.39	6.397
365.59	4.343
365.80	4.656
366.01	7.387
366.21	6.136
366.42	5.620
366.63	7.048
366.83	6.842
367.04	5.608
367.24	7.442
367.45	5.721
367.66	4.884
367.86	7.302
368.07	6.448
368.28	5.713
368.48	6.431
368.69	5.222
368.89	6.774
369.10	5.744
369.31	4.860
369.51	6.284
369.72	8.480
369.92	7.705
370.13	6.832
370.34	7.060
370.54	4.556
370.75	8.005
370.95	6.003
371.16	6.339
371.37	6.007
371.57	5.672
371.78	6.295
371.98	6.121
372.19	7.664
372.40	7.451
372.60	6.524
372.81	6.250
373.01	5.250
373.22	6.198
373.43	6.703
373.63	6.935
373.84	6.163
374.04	6.165
374.25	7.326
374.46	6.554
374.66	6.671
374.87	7.541
375.07	4.931
375.28	6.302
375.48	6.806
375.69	7.348
375.90	5.020
376.10	5.753
376.31	5.424
376.51	5.571
376.72	6.734
376.92	4.867
377.13	6.867
377.34	7.803
377.54	6.589
377.75	7.843
377.95	6.289
378.16	6.978
378.36	7.062
378.57	6.980
378.77	6.738
378.98	7.472
379.19	6.717
379.39	6.321
379.60	6.634
379.80	6.729
380.01	7.104
380.21	7.139
380.42	8.072
380.62	7.487
380.83	7.915
381.04	6.722
381.24	8.725
381.45	7.980
381.65	5.960
381.86	7.695
382.06	8.424
382.27	5.778
382.47	7.346
382.68	9.084
382.88	6.984
383.09	7.222
383.29	7.025
383.50	9.407
383.71	7.752
383.91	8.261
384.12	7.060
384.32	9.065
384.53	7.495
384.73	6.939
384.94	7.317
385.14	7.456
385.35	7.154
385.55	8.043
385.76	7.695
385.96	7.955
386.17	9.199
386.37	9.276
386.58	8.282
386.78	9.759
386.99	7.478
387.19	9.496
387.40	7.550
387.60	10.964
387.81	8.999
388.01	9.278
388.22	10.095
388.42	11.252
388.63	11.493
388.83	10.556
389.04	8.997
389.24	10.390
389.45	9.880
389.65	10.297
389.86	9.858
390.06	10.688
390.27	10.118
390.47	11.702
390.68	10.755
390.88	12.753
391.09	12.358
391.29	13.866
391.50	11.424
391.70	13.039
391.91	11.895
392.11	12.206
392.32	12.876
392.52	13.501
392.73	13.021
392.93	13.868
393.14	12.798
393.34	13.104
393.55	14.230
393.75	14.170
393.95	13.366
394.16	14.719
394.36	14.649
394.57	15.158
394.77	15.137
394.98	14.815
395.18	15.835
395.39	14.573
395.59	15.611
395.80	15.617
396.00	15.516
396.21	16.040
396.41	15.223
396.61	16.640
396.82	17.097
397.02	17.270
397.23	17.541
397.43	17.154
397.64	15.789
397.84	18.465
398.05	15.862
398.25	18.234
398.45	15.667
398.66	18.466
398.86	16.953
399.07	18.864
399.27	16.674
399.48	18.091
399.68	17.571
399.89	18.105
400.09	17.647
400.29	17.644
400.50	18.037
400.70	19.168
400.91	17.995
401.11	18.202
401.32	17.871
401.52	17.695
401.72	19.436
401.93	19.389
402.13	18.390
402.34	18.757
402.54	18.156
402.75	19.759
402.95	18.254
403.15	20.197
403.36	18.531
403.56	19.749
403.77	18.428
403.97	19.986
404.17	18.666
404.38	19.930
404.58	18.155
404.79	19.077
404.99	19.650
405.19	19.969
405.40	18.822
405.60	19.209
405.81	19.934
406.01	19.527
406.21	19.068
406.42	19.550
406.62	19.454
406.83	19.776
407.03	20.230
407.23	19.258
407.44	19.231
407.64	20.371
407.85	19.347
408.05	19.770
408.25	19.786
408.46	20.106
408.66	19.251
408.87	19.606
409.07	18.999
409.27	19.600
409.48	19.415
409.68	20.347
409.88	18.034
410.09	18.795
410.29	19.893
410.50	20.473
410.70	18.209
410.90	19.005
411.11	19.029
411.31	19.301
411.51	19.422
411.72	19.531
411.92	18.794
412.12	19.514
412.33	19.053
412.53	19.353
412.74	17.787
412.94	19.011
413.14	19.168
413.35	19.797
413.55	19.419
413.75	20.177
413.96	18.696
414.16	19.150
414.36	18.528
414.57	19.224
414.77	18.273
414.97	19.162
415.18	18.676
415.38	18.560
415.58	18.988
415.79	19.249
415.99	18.518
416.19	18.615
416.40	18.665
416.60	18.143
416.80	19.017
417.01	18.383
417.21	18.172
417.41	19.193
417.62	18.366
417.82	18.322
418.02	18.222
418.23	18.995
418.43	17.576
418.63	18.341
418.84	17.721
419.04	18.214
419.24	18.233
419.45	18.738
419.65	18.293
419.85	18.289
420.06	18.756
420.26	18.609
420.46	18.238
420.67	18.439
420.87	18.106
421.07	18.011
421.28	17.925
421.48	17.983
421.68	17.833
421.88	17.861
422.09	17.599
422.29	17.975
422.49	18.175
422.70	18.425
422.90	18.337
423.10	17.869
423.31	18.381
423.51	18.531
423.71	18.060
423.91	17.968
424.12	18.170
424.32	18.307
424.52	17.923
424.73	17.872
424.93	17.486
425.13	17.987
425.33	17.654
425.54	17.455
425.74	17.738
425.94	18.077
426.15	17.866
426.35	17.808
426.55	17.868
426.75	18.127
426.96	17.759
427.16	18.218
427.36	18.500
427.57	18.320
427.77	17.952
427.97	18.359
428.17	18.301
428.38	18.275
428.58	17.555
428.78	18.186
428.98	17.831
429.19	18.192
429.39	17.414
429.59	17.465
429.79	16.970
430.00	17.952
430.20	17.419
430.40	18.043
430.60	16.370
430.81	17.847
431.01	16.939
431.21	17.671
431.41	17.020
431.62	17.375
431.82	17.355
432.02	17.932
432.22	17.032
432.43	17.055
432.63	16.649
432.83	17.320
433.03	16.381
433.24	16.801
433.44	16.839
433.64	17.174
433.84	17.415
434.05	17.017
434.25	16.892
434.45	17.358
434.65	17.198
434.85	17.596
435.06	17.582
435.26	17.218
435.46	17.348
435.66	17.845
435.87	17.177
436.07	17.757
436.27	17.262
436.47	17.444
436.67	17.110
436.88	17.097
437.08	17.321
437.28	17.146
437.48	16.894
437.69	17.155
437.89	16.527
438.09	17.936
438.29	17.435
438.49	17.295
438.70	16.931
438.90	16.915
439.10	17.192
439.30	16.689
439.50	16.787
439.71	16.599
439.91	16.784
440.11	17.266
440.31	16.617
440.51	16.719
440.72	16.633
440.92	16.633
441.12	16.716
441.32	16.620
441.52	16.765
441.72	16.781
441.93	17.077
442.13	16.947
442.33	17.184
442.53	17.364
442.73	16.893
442.94	17.044
443.14	17.367
443.34	17.866
443.54	17.150
443.74	16.932
443.94	17.236
444.15	16.639
444.35	16.382
444.55	16.908
444.75	17.294
444.95	17.048
445.15	16.860
445.36	16.693
445.56	16.253
445.76	16.866
445.96	16.460
446.16	16.113
446.36	16.851
446.57	16.408
446.77	16.276
446.97	16.308
447.17	16.714
447.37	16.394
447.57	16.726
447.77	16.612
447.98	17.065
448.18	16.715
448.38	17.169
448.58	16.643
448.78	17.260
448.98	17.124
449.18	16.938
449.39	17.314
449.59	17.411
449.79	17.607
449.99	16.736
450.19	17.594
450.39	17.755
450.59	17.134
450.79	17.133
451.00	17.176
451.20	18.237
451.40	16.735
451.60	17.086
451.80	16.946
452.00	16.909
452.20	17.223
452.40	16.669
452.61	17.429
452.81	16.225
453.01	17.259
453.21	16.909
453.41	17.407
453.61	17.265
453.81	16.360
454.01	17.230
454.21	17.296
454.42	16.746
454.62	16.773
454.82	17.117
455.02	16.878
455.22	16.410
455.42	16.908
455.62	16.956
455.82	16.948
456.02	17.453
456.23	17.027
456.43	16.969
456.63	17.293
456.83	16.518
457.03	17.420
457.23	16.640
457.43	17.205
457.63	17.032
457.83	16.482
458.03	16.487
458.23	16.507
458.43	16.501
458.64	16.312
458.84	16.776
459.04	16.573
459.24	16.715
459.44	15.947
459.64	16.160
459.84	16.223
460.04	15.935
460.24	16.389
460.44	16.458
460.64	16.550
460.84	16.243
461.04	16.041
461.24	16.662
461.45	16.610
461.65	17.048
461.85	17.176
462.05	16.871
462.25	17.369
462.45	17.154
462.65	16.861
462.85	16.734
463.05	17.475
463.25	16.785
463.45	16.895
463.65	16.573
463.85	16.859
464.05	16.877
464.25	17.030
464.45	17.397
464.65	16.386
464.85	16.441
465.05	16.370
465.26	16.708
465.46	16.899
465.66	16.997
465.86	17.036
466.06	16.703
466.26	16.654
466.46	16.395
466.66	16.859
466.86	16.933
467.06	16.971
467.26	16.465
467.46	16.680
467.66	16.890
467.86	16.948
468.06	16.816
468.26	16.902
468.46	16.952
468.66	16.709
468.86	16.766
469.06	17.355
469.26	17.063
469.46	16.646
