SpectraSuite Data File
++++++++++++++++++++++++++++++++++++
Date: Mon Sep 23 03:24:11 EST 2019
User: sgrac
Dark Spectrum Present: Yes
Reference Spectrum Present: Yes
Number of Sampled Component Spectra: 1
Spectrometers: USB4E01596
Integration Time (usec): 100000 (USB4E01596)
Spectra Averaged: 3 (USB4E01596)
Boxcar Smoothing: 0 (USB4E01596)
Correct for Electrical Dark: No (USB4E01596)
Strobe/Lamp Enabled: Yes (USB4E01596)
Correct for Detector Non-linearity: No (USB4E01596)
Correct for Stray Light: No (USB4E01596)
Number of Pixels in Processed Spectrum: 3648
>>>>>Begin Processed Spectral Data<<<<<
178.44	1107.692
178.66	1107.692
178.87	1107.692
179.09	5733.333
179.30	-5475.000
179.52	-522.581
179.74	-366.038
179.95	561.364
180.17	-566.667
180.38	456.140
180.60	-2690.909
180.82	533.333
181.03	3816.667
181.25	-2275.000
181.46	-932.000
181.68	954.167
181.89	-488.636
182.11	-1518.750
182.33	-1643.750
182.54	522.917
182.76	4016.667
182.97	-440.426
183.19	965.000
183.40	255.372
183.62	324.359
183.84	298.182
184.05	3485.714
184.27	395.455
184.48	359.091
184.70	1282.353
184.91	1176.190
185.13	1840.000
185.34	-9100.000
185.56	1034.615
185.78	329.167
185.99	769.444
186.21	345.455
186.42	-2675.000
186.64	1010.000
186.85	-4300.000
187.07	304.000
187.28	338.158
187.50	389.091
187.72	296.154
187.93	594.545
188.15	241.667
188.36	319.737
188.58	446.939
188.79	246.154
189.01	391.549
189.22	737.838
189.44	-824.242
189.65	268.644
189.87	-4525.000
190.09	363.492
190.30	709.524
190.52	425.000
190.73	584.783
190.95	-3750.000
191.16	298.810
191.38	358.108
191.59	332.353
191.81	483.871
192.02	1180.000
192.24	703.125
192.45	670.588
192.67	-1500.000
192.88	326.415
193.10	478.689
193.31	725.000
193.53	230.645
193.74	270.667
193.96	1735.714
194.18	738.462
194.39	1426.667
194.61	373.973
194.82	1222.727
195.04	248.780
195.25	-345.614
195.47	-305.556
195.68	3516.667
195.90	440.000
196.11	322.388
196.33	17000.000
196.54	621.951
196.76	1592.857
196.97	344.156
197.19	529.730
197.40	1728.571
197.62	244.954
197.83	593.548
198.05	540.000
198.26	551.724
198.48	384.507
198.69	360.000
198.91	961.111
199.12	634.884
199.34	484.783
199.55	354.286
199.77	1800.000
199.98	991.176
200.20	227.632
200.41	509.677
200.63	263.717
200.84	1192.857
201.06	2111.111
201.27	419.512
201.49	357.746
201.70	-653.333
201.91	365.278
202.13	518.644
202.34	308.621
202.56	-740.000
202.77	466.667
202.99	5450.000
203.20	-2412.500
203.42	1575.000
203.63	202.632
203.85	3183.333
204.06	474.000
204.28	196.970
204.49	509.259
204.71	345.763
204.92	784.615
205.14	0.000
205.35	880.000
205.56	-780.000
205.78	5140.000
205.99	-1650.000
206.21	10350.000
206.42	361.364
206.64	690.323
206.85	588.889
207.07	-2400.000
207.28	374.138
207.50	550.000
207.71	880.645
207.93	367.470
208.14	-681.481
208.35	530.909
208.57	972.000
208.78	-2088.889
209.00	324.468
209.21	-12450.000
209.43	-5933.333
209.64	-1520.000
209.86	247.423
210.07	350.000
210.28	388.732
210.50	834.483
210.71	376.471
210.93	191.176
211.14	300.000
211.36	1750.000
211.57	439.394
211.78	381.429
212.00	377.647
212.21	340.000
212.43	730.769
212.64	338.298
212.86	363.514
213.07	281.651
213.29	-616.667
213.50	252.174
213.71	222.989
213.93	320.732
214.14	1581.818
214.36	294.118
214.57	294.937
214.78	700.000
215.00	243.750
215.21	710.000
215.43	543.243
215.64	282.540
215.86	215.000
216.07	588.571
216.28	650.000
216.50	260.000
216.71	16500.000
216.93	434.848
217.14	1050.000
217.35	246.212
217.57	232.432
217.78	281.481
218.00	252.525
218.21	952.174
218.42	546.809
218.64	283.929
218.85	438.000
219.07	855.000
219.28	212.150
219.49	462.745
219.71	376.923
219.92	156.716
220.14	255.670
220.35	330.667
220.56	257.471
220.78	242.308
220.99	244.355
221.21	216.129
221.42	285.185
221.63	145.087
221.85	298.462
222.06	398.571
222.28	340.000
222.49	172.973
222.70	225.984
222.92	589.796
223.13	300.000
223.34	179.433
223.56	208.333
223.77	277.500
223.99	267.368
224.20	360.714
224.41	290.411
224.63	302.273
224.84	186.486
225.05	99.145
225.27	132.174
225.48	232.353
225.69	208.271
225.91	258.108
226.12	247.287
226.34	161.074
226.55	152.518
226.76	201.875
226.98	120.000
227.19	97.266
227.40	225.781
227.62	124.868
227.83	98.712
228.04	94.413
228.26	69.152
228.47	61.756
228.69	39.848
228.90	22.388
229.11	40.204
229.33	48.746
229.54	28.700
229.75	33.050
229.97	28.668
230.18	33.034
230.39	26.881
230.61	34.440
230.82	31.497
231.03	19.302
231.25	32.859
231.46	29.864
231.67	32.765
231.89	40.251
232.10	36.546
232.31	48.056
232.53	42.784
232.74	56.822
232.95	39.746
233.17	44.800
233.38	36.345
233.59	43.785
233.81	56.703
234.02	39.679
234.23	53.546
234.45	47.743
234.66	57.522
234.87	38.525
235.09	37.621
235.30	26.795
235.51	48.399
235.73	43.228
235.94	37.155
236.15	43.924
236.36	35.888
236.58	33.073
236.79	39.086
237.00	42.815
237.22	43.367
237.43	39.143
237.64	41.417
237.86	40.602
238.07	53.436
238.28	40.645
238.50	40.541
238.71	30.216
238.92	34.219
239.13	34.576
239.35	37.636
239.56	44.876
239.77	48.823
239.99	32.863
240.20	37.119
240.41	39.742
240.63	35.310
240.84	31.592
241.05	22.128
241.26	31.367
241.48	17.785
241.69	17.694
241.90	14.718
242.12	17.056
242.33	20.588
242.54	13.066
242.75	17.868
242.97	14.924
243.18	10.219
243.39	11.708
243.61	13.923
243.82	12.045
244.03	11.754
244.24	13.126
244.46	16.445
244.67	15.370
244.88	14.486
245.09	13.823
245.31	16.454
245.52	14.587
245.73	11.245
245.95	28.590
246.16	16.573
246.37	14.470
246.58	15.150
246.80	13.593
247.01	12.601
247.22	8.897
247.43	12.192
247.65	7.734
247.86	9.908
248.07	6.859
248.28	9.469
248.50	9.152
248.71	8.068
248.92	8.239
249.13	8.167
249.35	9.598
249.56	9.406
249.77	10.172
249.98	9.320
250.20	12.142
250.41	11.640
250.62	12.920
250.83	12.876
251.05	16.588
251.26	12.539
251.47	15.874
251.68	14.681
251.90	17.037
252.11	12.835
252.32	13.435
252.53	16.024
252.75	16.119
252.96	13.951
253.17	13.589
253.38	11.679
253.59	14.791
253.81	12.810
254.02	9.991
254.23	13.584
254.44	10.088
254.66	9.945
254.87	13.757
255.08	17.095
255.29	14.950
255.50	14.543
255.72	15.357
255.93	18.834
256.14	17.797
256.35	16.949
256.57	22.790
256.78	17.674
256.99	15.315
257.20	20.975
257.41	17.721
257.63	20.040
257.84	18.691
258.05	13.982
258.26	17.594
258.47	13.029
258.69	14.330
258.90	10.085
259.11	11.445
259.32	12.793
259.53	8.064
259.75	8.939
259.96	8.159
260.17	9.512
260.38	5.586
260.59	7.928
260.81	5.877
261.02	6.853
261.23	7.385
261.44	6.496
261.65	6.656
261.87	6.310
262.08	7.478
262.29	6.942
262.50	6.356
262.71	7.495
262.92	8.060
263.14	7.192
263.35	9.587
263.56	9.014
263.77	9.266
263.98	12.622
264.20	11.412
264.41	11.494
264.62	11.296
264.83	10.925
265.04	13.571
265.25	14.927
265.47	12.506
265.68	13.207
265.89	11.980
266.10	9.287
266.31	14.541
266.52	11.646
266.74	8.376
266.95	12.332
267.16	13.705
267.37	8.707
267.58	10.125
267.79	10.710
268.01	9.588
268.22	10.184
268.43	11.284
268.64	10.575
268.85	7.695
269.06	8.933
269.27	12.192
269.49	8.399
269.70	10.007
269.91	10.297
270.12	8.663
270.33	11.359
270.54	8.476
270.75	8.408
270.97	10.456
271.18	9.625
271.39	9.169
271.60	9.293
271.81	8.676
272.02	7.598
272.23	8.777
272.45	9.459
272.66	6.296
272.87	7.209
273.08	5.303
273.29	8.580
273.50	7.151
273.71	7.015
273.92	4.096
274.14	7.544
274.35	7.341
274.56	7.274
274.77	8.312
274.98	7.573
275.19	8.159
275.40	8.447
275.61	7.690
275.83	11.792
276.04	8.625
276.25	12.048
276.46	7.681
276.67	8.657
276.88	11.156
277.09	8.395
277.30	8.586
277.51	9.501
277.73	8.585
277.94	9.088
278.15	10.986
278.36	8.799
278.57	5.304
278.78	8.765
278.99	11.252
279.20	8.960
279.41	12.374
279.62	8.054
279.84	8.061
280.05	8.219
280.26	9.383
280.47	7.315
280.68	7.519
280.89	10.657
281.10	8.720
281.31	7.465
281.52	9.224
281.73	7.386
281.94	6.108
282.16	8.487
282.37	3.961
282.58	7.072
282.79	9.975
283.00	10.526
283.21	6.011
283.42	4.641
283.63	9.532
283.84	6.652
284.05	7.966
284.26	7.078
284.47	7.818
284.68	7.045
284.89	6.711
285.11	7.508
285.32	5.200
285.53	7.327
285.74	8.288
285.95	5.222
286.16	6.750
286.37	5.654
286.58	6.498
286.79	5.861
287.00	5.808
287.21	5.246
287.42	5.278
287.63	7.614
287.84	5.430
288.05	6.321
288.26	5.243
288.48	7.107
288.69	3.851
288.90	7.065
289.11	8.245
289.32	6.671
289.53	7.617
289.74	6.217
289.95	6.284
290.16	7.119
290.37	5.039
290.58	5.447
290.79	4.784
291.00	4.271
291.21	4.254
291.42	5.125
291.63	6.433
291.84	7.635
292.05	5.278
292.26	4.958
292.47	6.505
292.68	4.811
292.89	5.372
293.10	7.734
293.31	6.636
293.52	3.977
293.73	7.631
293.94	5.330
294.15	6.036
294.36	7.524
294.57	7.590
294.79	6.168
295.00	5.207
295.21	6.497
295.42	5.851
295.63	6.188
295.84	5.239
296.05	4.603
296.26	3.363
296.47	4.667
296.68	4.768
296.89	8.949
297.10	5.652
297.31	6.919
297.52	2.595
297.73	6.536
297.94	4.238
298.15	4.724
298.36	4.900
298.57	4.151
298.78	5.293
298.99	5.017
299.20	5.846
299.41	6.116
299.62	5.367
299.83	4.592
300.04	4.756
300.25	5.105
300.46	6.969
300.67	7.867
300.88	5.957
301.09	6.048
301.30	7.179
301.50	6.732
301.71	7.856
301.92	7.003
302.13	6.285
302.34	5.615
302.55	5.634
302.76	4.737
302.97	5.085
303.18	6.896
303.39	5.179
303.60	6.756
303.81	6.267
304.02	4.110
304.23	6.917
304.44	5.616
304.65	3.450
304.86	7.339
305.07	4.588
305.28	5.149
305.49	6.209
305.70	7.152
305.91	5.436
306.12	5.718
306.33	4.469
306.54	5.598
306.75	5.933
306.96	8.561
307.17	6.330
307.38	5.470
307.58	6.048
307.79	6.256
308.00	7.641
308.21	5.832
308.42	5.586
308.63	6.490
308.84	5.448
309.05	6.515
309.26	4.968
309.47	6.448
309.68	6.540
309.89	6.202
310.10	6.975
310.31	5.263
310.52	4.250
310.73	6.388
310.94	3.278
311.14	5.475
311.35	4.884
311.56	5.625
311.77	3.714
311.98	4.773
312.19	5.071
312.40	3.717
312.61	3.670
312.82	5.138
313.03	4.106
313.24	6.081
313.45	5.836
313.66	4.248
313.86	6.792
314.07	4.676
314.28	6.333
314.49	4.268
314.70	6.604
314.91	6.215
315.12	3.892
315.33	7.305
315.54	5.414
315.75	4.785
315.96	4.981
316.16	5.622
316.37	5.136
316.58	5.942
316.79	5.720
317.00	5.698
317.21	6.405
317.42	5.906
317.63	5.331
317.84	5.824
318.05	6.119
318.25	7.395
318.46	5.936
318.67	4.721
318.88	5.720
319.09	6.132
319.30	5.974
319.51	5.950
319.72	7.918
319.93	5.154
320.13	6.270
320.34	7.460
320.55	6.208
320.76	6.836
320.97	5.911
321.18	7.216
321.39	5.592
321.60	7.399
321.80	7.264
322.01	6.995
322.22	4.857
322.43	5.044
322.64	6.421
322.85	6.939
323.06	5.945
323.27	5.065
323.47	7.659
323.68	7.170
323.89	6.227
324.10	6.357
324.31	5.964
324.52	6.249
324.73	6.531
324.93	5.364
325.14	5.037
325.35	7.349
325.56	4.442
325.77	6.726
325.98	5.477
326.19	7.371
326.39	4.597
326.60	3.899
326.81	3.611
327.02	4.449
327.23	5.295
327.44	5.976
327.64	4.750
327.85	3.397
328.06	6.929
328.27	8.492
328.48	5.714
328.69	4.046
328.90	4.256
329.10	6.131
329.31	5.794
329.52	4.601
329.73	7.446
329.94	5.887
330.15	5.587
330.35	8.206
330.56	6.512
330.77	6.507
330.98	4.346
331.19	5.284
331.39	6.769
331.60	6.915
331.81	4.497
332.02	5.623
332.23	5.952
332.44	5.584
332.64	6.070
332.85	4.196
333.06	5.207
333.27	4.384
333.48	5.834
333.68	3.586
333.89	5.715
334.10	5.466
334.31	5.160
334.52	5.169
334.72	5.518
334.93	5.156
335.14	4.186
335.35	5.213
335.56	5.374
335.76	4.912
335.97	5.215
336.18	6.562
336.39	5.537
336.60	4.063
336.80	4.672
337.01	4.220
337.22	4.447
337.43	4.905
337.64	7.203
337.84	5.334
338.05	5.052
338.26	6.387
338.47	6.402
338.68	4.253
338.88	5.208
339.09	4.805
339.30	4.928
339.51	5.127
339.71	6.988
339.92	5.370
340.13	5.464
340.34	5.817
340.55	5.514
340.75	5.683
340.96	3.728
341.17	6.356
341.38	4.690
341.58	5.659
341.79	4.658
342.00	4.949
342.21	4.443
342.41	4.895
342.62	6.102
342.83	5.215
343.04	4.929
343.24	4.641
343.45	4.903
343.66	3.836
343.87	4.485
344.07	4.565
344.28	3.807
344.49	4.861
344.70	5.388
344.90	4.256
345.11	3.847
345.32	4.819
345.53	4.245
345.73	5.651
345.94	5.651
346.15	5.441
346.36	3.510
346.56	3.802
346.77	5.812
346.98	3.525
347.19	4.861
347.39	4.623
347.60	4.293
347.81	5.317
348.02	5.814
348.22	4.540
348.43	4.338
348.64	5.478
348.84	4.226
349.05	5.680
349.26	4.744
349.47	5.383
349.67	4.849
349.88	5.407
350.09	4.996
350.30	6.785
350.50	5.132
350.71	5.533
350.92	4.776
351.12	4.762
351.33	4.697
351.54	4.981
351.74	5.021
351.95	5.373
352.16	6.533
352.37	5.948
352.57	5.479
352.78	6.200
352.99	4.286
353.19	5.256
353.40	4.987
353.61	7.226
353.82	6.662
354.02	7.750
354.23	5.362
354.44	6.894
354.64	5.675
354.85	6.430
355.06	5.334
355.26	5.436
355.47	5.122
355.68	5.076
355.88	7.092
356.09	5.840
356.30	5.594
356.51	5.969
356.71	4.683
356.92	5.166
357.13	5.467
357.33	6.786
357.54	5.513
357.75	3.936
357.95	6.015
358.16	4.277
358.37	6.259
358.57	4.734
358.78	7.030
358.99	4.480
359.19	5.728
359.40	5.774
359.61	4.946
359.81	6.384
360.02	7.323
360.23	4.164
360.43	4.457
360.64	4.599
360.85	5.127
361.05	5.042
361.26	5.413
361.47	4.515
361.67	5.885
361.88	4.637
362.09	5.746
362.29	4.131
362.50	4.215
362.70	4.061
362.91	5.353
363.12	4.998
363.32	4.629
363.53	5.287
363.74	4.919
363.94	3.695
364.15	6.560
364.36	6.138
364.56	4.379
364.77	5.366
364.98	7.046
365.18	5.610
365.39	6.371
365.59	5.517
365.80	6.041
366.01	6.274
366.21	4.436
366.42	4.437
366.63	6.004
366.83	4.921
367.04	4.385
367.24	6.152
367.45	4.547
367.66	4.996
367.86	5.184
368.07	4.765
368.28	4.640
368.48	5.434
368.69	4.010
368.89	5.389
369.10	5.498
369.31	4.391
369.51	5.786
369.72	6.362
369.92	6.416
370.13	4.282
370.34	5.515
370.54	3.421
370.75	4.678
370.95	4.540
371.16	4.559
371.37	4.935
371.57	5.111
371.78	5.177
371.98	5.837
372.19	5.141
372.40	5.080
372.60	6.109
372.81	6.086
373.01	4.558
373.22	4.457
373.43	5.557
373.63	4.320
373.84	5.381
374.04	4.973
374.25	4.488
374.46	6.491
374.66	5.446
374.87	5.180
375.07	4.248
375.28	4.583
375.48	4.385
375.69	5.584
375.90	3.062
376.10	3.258
376.31	5.416
376.51	3.901
376.72	5.045
376.92	4.112
377.13	4.914
377.34	4.687
377.54	3.598
377.75	5.107
377.95	4.331
378.16	5.814
378.36	4.701
378.57	5.409
378.77	4.521
378.98	5.375
379.19	3.805
379.39	3.406
379.60	4.870
379.80	4.077
380.01	5.145
380.21	4.447
380.42	5.246
380.62	4.876
380.83	5.238
381.04	4.394
381.24	5.741
381.45	4.961
381.65	3.678
381.86	4.347
382.06	5.624
382.27	3.789
382.47	4.125
382.68	5.248
382.88	4.091
383.09	3.908
383.29	4.513
383.50	5.758
383.71	4.367
383.91	4.859
384.12	4.616
384.32	5.105
384.53	3.753
384.73	3.938
384.94	3.844
385.14	3.862
385.35	3.827
385.55	4.797
385.76	3.903
385.96	3.884
386.17	4.620
386.37	5.237
386.58	4.403
386.78	4.456
386.99	3.383
387.19	4.903
387.40	4.510
387.60	5.842
387.81	4.279
388.01	4.006
388.22	4.998
388.42	5.044
388.63	5.422
388.83	5.859
389.04	3.928
389.24	4.708
389.45	4.711
389.65	4.560
389.86	4.357
390.06	4.325
390.27	4.298
390.47	3.871
390.68	4.146
390.88	4.964
391.09	5.084
391.29	5.007
391.50	4.981
391.70	4.971
391.91	4.692
392.11	4.106
392.32	4.336
392.52	5.053
392.73	4.349
392.93	4.894
393.14	4.543
393.34	3.867
393.55	5.467
393.75	4.917
393.95	4.857
394.16	4.854
394.36	5.333
394.57	5.694
394.77	5.118
394.98	4.363
395.18	5.013
395.39	4.366
395.59	4.337
395.80	4.927
396.00	4.891
396.21	5.752
396.41	3.837
396.61	5.389
396.82	5.064
397.02	6.306
397.23	5.072
397.43	4.861
397.64	3.696
397.84	5.791
398.05	4.225
398.25	4.846
398.45	4.993
398.66	4.860
398.86	4.499
399.07	5.986
399.27	4.497
399.48	5.639
399.68	4.849
399.89	4.203
400.09	4.946
400.29	4.048
400.50	4.985
400.70	4.274
400.91	4.718
401.11	4.087
401.32	4.704
401.52	3.440
401.72	4.735
401.93	6.323
402.13	4.429
402.34	4.559
402.54	4.011
402.75	6.103
402.95	4.310
403.15	6.252
403.36	4.011
403.56	5.356
403.77	4.110
403.97	4.363
404.17	4.523
404.38	4.778
404.58	4.153
404.79	5.102
404.99	4.996
405.19	4.852
405.40	3.909
405.60	4.431
405.81	4.761
406.01	4.061
406.21	4.337
406.42	4.876
406.62	4.304
406.83	4.728
407.03	5.700
407.23	4.401
407.44	4.014
407.64	5.292
407.85	4.721
408.05	4.588
408.25	4.701
408.46	5.587
408.66	4.797
408.87	4.443
409.07	5.000
409.27	4.326
409.48	5.159
409.68	4.452
409.88	3.353
410.09	4.634
410.29	5.138
410.50	5.130
410.70	3.904
410.90	4.162
411.11	3.713
411.31	4.429
411.51	5.038
411.72	4.900
411.92	3.783
412.12	4.513
412.33	3.745
412.53	3.779
412.74	3.432
412.94	4.117
413.14	4.395
413.35	4.392
413.55	4.742
413.75	5.780
413.96	3.752
414.16	4.375
414.36	4.334
414.57	4.531
414.77	4.173
414.97	5.120
415.18	4.436
415.38	4.546
415.58	4.232
415.79	3.435
415.99	3.623
416.19	4.769
416.40	4.530
416.60	4.131
416.80	4.047
417.01	4.460
417.21	3.033
417.41	4.700
417.62	4.463
417.82	4.694
418.02	3.622
418.23	4.308
418.43	4.057
418.63	4.461
418.84	4.724
419.04	4.223
419.24	4.951
419.45	4.752
419.65	5.122
419.85	5.323
420.06	4.991
420.26	4.743
420.46	4.496
420.67	4.975
420.87	4.928
421.07	5.371
421.28	4.405
421.48	5.302
421.68	4.876
421.88	5.509
422.09	5.265
422.29	5.177
422.49	4.362
422.70	4.900
422.90	5.075
423.10	5.192
423.31	5.169
423.51	5.245
423.71	4.727
423.91	5.738
424.12	5.261
424.32	5.751
424.52	5.199
424.73	5.287
424.93	5.303
425.13	5.152
425.33	4.972
425.54	5.617
425.74	5.144
425.94	5.518
426.15	5.416
426.35	5.259
426.55	5.441
426.75	5.664
426.96	5.469
427.16	5.114
427.36	5.299
427.57	5.820
427.77	5.088
427.97	5.666
428.17	5.978
428.38	5.551
428.58	4.745
428.78	5.784
428.98	4.523
429.19	4.906
429.39	4.405
429.59	5.268
429.79	4.192
430.00	4.867
430.20	4.451
430.40	5.189
430.60	5.020
430.81	5.361
431.01	4.965
431.21	5.832
431.41	4.640
431.62	5.789
431.82	4.801
432.02	6.058
432.22	5.026
432.43	5.465
432.63	5.402
432.83	5.865
433.03	5.293
433.24	5.216
433.44	4.860
433.64	6.453
433.84	5.576
434.05	6.661
434.25	6.107
434.45	7.011
434.65	6.715
434.85	6.884
435.06	6.324
435.26	5.879
435.46	6.330
435.66	6.997
435.87	6.255
436.07	6.486
436.27	6.471
436.47	6.018
436.67	5.612
436.88	6.737
437.08	6.519
437.28	6.752
437.48	6.267
437.69	7.476
437.89	6.640
438.09	7.548
438.29	6.774
438.49	7.288
438.70	6.935
438.90	6.740
439.10	6.669
439.30	7.112
439.50	6.477
439.71	7.292
439.91	7.105
440.11	7.505
440.31	7.606
440.51	7.409
440.72	7.286
440.92	7.639
441.12	7.620
441.32	8.189
441.52	7.975
441.72	8.122
441.93	8.009
442.13	8.308
442.33	7.874
442.53	8.445
442.73	7.353
442.94	8.178
443.14	7.934
443.34	8.374
443.54	7.684
443.74	8.412
443.94	7.662
444.15	7.853
444.35	7.504
444.55	8.210
444.75	7.619
444.95	8.232
445.15	7.804
445.36	8.059
445.56	7.098
445.76	8.215
445.96	7.977
446.16	8.145
446.36	7.913
446.57	8.747
446.77	7.651
446.97	8.659
447.17	8.771
447.37	8.547
447.57	8.431
447.77	8.591
447.98	8.462
448.18	8.897
448.38	8.083
448.58	8.718
448.78	8.547
448.98	8.701
449.18	8.311
449.39	8.816
449.59	8.166
449.79	8.538
449.99	8.329
450.19	8.855
450.39	8.334
450.59	8.780
450.79	8.242
451.00	8.925
451.20	9.384
451.40	8.178
451.60	7.726
451.80	8.794
452.00	8.298
452.20	8.859
452.40	8.534
452.61	8.229
452.81	8.293
453.01	8.159
453.21	8.306
453.41	8.712
453.61	8.570
453.81	8.600
454.01	8.066
454.21	8.668
454.42	8.992
454.62	8.820
454.82	8.654
455.02	8.760
455.22	8.156
455.42	7.990
455.62	7.639
455.82	8.383
456.02	8.184
456.23	8.719
456.43	8.128
456.63	8.896
456.83	7.676
457.03	8.599
457.23	8.218
457.43	8.795
457.63	8.109
457.83	8.980
458.03	8.193
458.23	8.602
458.43	7.719
458.64	9.082
458.84	8.776
459.04	8.820
459.24	8.608
459.44	8.546
459.64	8.627
459.84	8.640
460.04	8.915
460.24	9.203
460.44	9.020
460.64	9.329
460.84	9.020
461.04	9.756
461.24	9.517
461.45	9.574
461.65	9.446
461.85	9.798
462.05	9.167
462.25	9.230
462.45	9.508
462.65	9.556
462.85	8.780
463.05	9.806
463.25	8.160
463.45	9.900
463.65	8.703
463.85	9.561
464.05	9.057
464.25	9.230
464.45	9.301
464.65	8.866
464.85	8.734
465.05	9.080
465.26	9.054
465.46	9.437
465.66	9.301
465.86	9.323
466.06	8.722
466.26	9.221
466.46	8.554
466.66	9.143
466.86	8.687
467.06	9.281
467.26	9.523
467.46	9.394
467.66	9.573
467.86	9.500
468.06	9.383
468.26	9.783
468.46	9.323
468.66	9.848
468.86	8.880
469.06	9.857
469.26	8.684
469.46	9.918
469.66	9.208
469.86	9.923
470.06	9.389
470.26	10.204
470.46	9.242
470.66	10.426
470.86	9.243
471.06	10.060
471.26	9.384
471.46	9.523
471.66	9.511
471.86	9.971
472.06	9.646
472.26	10.575
472.46	10.238
472.66	10.764
472.86	9.797
473.06	10.038
473.26	10.071
473.46	10.779
473.66	9.556
473.86	10.251
474.06	10.007
474.26	10.629
474.46	9.780
474.66	10.628
474.86	10.531
475.06	11.198
475.26	9.872
475.46	10.892
475.66	9.923
475.86	10.579
476.06	10.849
476.26	11.027
476.46	10.825
476.66	10.809
476.86	10.271
