SpectraSuite Data File
++++++++++++++++++++++++++++++++++++
Date: Mon Sep 23 03:38:15 EST 2019
User: sgrac
Dark Spectrum Present: Yes
Reference Spectrum Present: Yes
Number of Sampled Component Spectra: 1
Spectrometers: USB4E01596
Integration Time (usec): 100000 (USB4E01596)
Spectra Averaged: 3 (USB4E01596)
Boxcar Smoothing: 0 (USB4E01596)
Correct for Electrical Dark: No (USB4E01596)
Strobe/Lamp Enabled: Yes (USB4E01596)
Correct for Detector Non-linearity: No (USB4E01596)
Correct for Stray Light: No (USB4E01596)
Number of Pixels in Processed Spectrum: 3648
>>>>>Begin Processed Spectral Data<<<<<
178.44	1184.615
178.66	1184.615
178.87	1184.615
179.09	8300.000
179.30	-5225.000
179.52	-470.968
179.74	-471.698
179.95	525.000
180.17	-455.556
180.38	498.246
180.60	-2754.545
180.82	742.222
181.03	4316.667
181.25	-2366.667
181.46	-1232.000
181.68	1420.833
181.89	-550.000
182.11	-2012.500
182.33	-1768.750
182.54	564.583
182.76	5033.333
182.97	-642.553
183.19	1265.000
183.40	272.727
183.62	388.462
183.84	288.182
184.05	4600.000
184.27	450.000
184.48	465.152
184.70	1623.529
184.91	1338.095
185.13	2480.000
185.34	-13350.000
185.56	1126.923
185.78	313.889
185.99	916.667
186.21	393.182
186.42	-4625.000
186.64	1500.000
186.85	-4940.000
187.07	450.000
187.28	413.158
187.50	387.273
187.72	335.897
187.93	792.727
188.15	322.917
188.36	407.895
188.58	551.020
188.79	309.615
189.01	469.014
189.22	745.946
189.44	-733.333
189.65	289.831
189.87	-4300.000
190.09	369.841
190.30	754.762
190.52	516.667
190.73	708.696
190.95	-4300.000
191.16	323.810
191.38	427.027
191.59	426.471
191.81	490.323
192.02	1346.667
192.24	634.375
192.45	676.471
192.67	-1375.000
192.88	433.962
193.10	481.967
193.31	695.000
193.53	283.065
193.74	369.333
193.96	2028.571
194.18	803.846
194.39	1660.000
194.61	394.521
194.82	1513.636
195.04	286.585
195.25	-392.982
195.47	-337.037
195.68	3700.000
195.90	334.545
196.11	413.433
196.33	24600.000
196.54	739.024
196.76	1835.714
196.97	366.234
197.19	781.081
197.40	1800.000
197.62	285.321
197.83	793.548
198.05	567.273
198.26	862.069
198.48	370.423
198.69	420.000
198.91	1283.333
199.12	486.047
199.34	571.739
199.55	351.429
199.77	1552.632
199.98	773.529
200.20	434.211
200.41	412.903
200.63	244.248
200.84	1764.286
201.06	2888.889
201.27	926.829
201.49	353.521
201.70	-603.333
201.91	358.333
202.13	493.220
202.34	450.000
202.56	-796.000
202.77	473.333
202.99	4633.333
203.20	-3000.000
203.42	2006.250
203.63	285.526
203.85	4866.667
204.06	512.000
204.28	239.394
204.49	557.407
204.71	433.898
204.92	923.077
205.14	0.000
205.35	770.000
205.56	-1295.000
205.78	5500.000
205.99	-1478.571
206.21	9050.000
206.42	720.455
206.64	1045.161
206.85	800.000
207.07	-2233.333
207.28	448.276
207.50	678.261
207.71	825.806
207.93	378.313
208.14	-985.185
208.35	327.273
208.57	1148.000
208.78	-2822.222
209.00	314.894
209.21	-13500.000
209.43	-8366.667
209.64	-1246.667
209.86	265.979
210.07	338.372
210.28	411.268
210.50	886.207
210.71	419.608
210.93	200.000
211.14	384.270
211.36	1550.000
211.57	434.848
211.78	270.000
212.00	367.059
212.21	415.714
212.43	738.462
212.64	379.787
212.86	417.568
213.07	289.908
213.29	-658.333
213.50	307.609
213.71	386.207
213.93	375.610
214.14	1836.364
214.36	466.176
214.57	340.506
214.78	520.000
215.00	339.583
215.21	943.333
215.43	629.730
215.64	295.238
215.86	305.000
216.07	617.143
216.28	652.632
216.50	323.333
216.71	20700.000
216.93	443.939
217.14	1311.111
217.35	255.303
217.57	236.036
217.78	370.370
218.00	191.919
218.21	1065.217
218.42	512.766
218.64	401.786
218.85	438.000
219.07	830.000
219.28	276.636
219.49	458.824
219.71	453.846
219.92	223.134
220.14	270.103
220.35	345.333
220.56	336.782
220.78	235.577
220.99	237.097
221.21	260.215
221.42	381.481
221.63	175.723
221.85	353.846
222.06	327.143
222.28	287.692
222.49	219.820
222.70	202.362
222.92	455.102
223.13	381.967
223.34	221.277
223.56	340.476
223.77	333.750
223.99	303.158
224.20	282.143
224.41	338.356
224.63	294.318
224.84	216.892
225.05	133.333
225.27	233.043
225.48	267.647
225.69	222.556
225.91	374.324
226.12	216.279
226.34	200.671
226.55	164.748
226.76	189.375
226.98	142.353
227.19	130.859
227.40	241.406
227.62	104.762
227.83	122.747
228.04	87.151
228.26	59.126
228.47	77.337
228.69	58.376
228.90	40.512
229.11	48.722
229.33	45.141
229.54	36.422
229.75	33.901
229.97	27.725
230.18	36.854
230.39	28.319
230.61	33.817
230.82	29.581
231.03	37.732
231.25	33.894
231.46	35.633
231.67	39.450
231.89	51.393
232.10	37.422
232.31	46.034
232.53	44.652
232.74	59.439
232.95	35.935
233.17	46.800
233.38	46.429
233.59	52.505
233.81	65.217
234.02	53.707
234.23	62.943
234.45	55.903
234.66	48.009
234.87	54.918
235.09	62.379
235.30	40.981
235.51	37.544
235.73	43.599
235.94	38.171
236.15	48.023
236.36	30.280
236.58	41.498
236.79	39.823
237.00	43.695
237.22	51.701
237.43	45.347
237.64	42.047
237.86	41.353
238.07	46.048
238.28	46.129
238.50	47.466
238.71	32.014
238.92	36.875
239.13	40.847
239.35	52.411
239.56	51.413
239.77	65.306
239.99	38.364
240.20	37.396
240.41	38.307
240.63	30.728
240.84	30.721
241.05	29.746
241.26	29.794
241.48	27.744
241.69	21.895
241.90	18.934
242.12	17.764
242.33	18.557
242.54	15.201
242.75	13.122
242.97	16.027
243.18	10.369
243.39	11.616
243.61	14.846
243.82	12.418
244.03	14.491
244.24	10.288
244.46	11.667
244.67	14.998
244.88	15.639
245.09	18.243
245.31	20.800
245.52	16.576
245.73	10.520
245.95	27.550
246.16	15.191
246.37	13.181
246.58	12.875
246.80	10.745
247.01	14.529
247.22	10.832
247.43	10.193
247.65	8.558
247.86	9.433
248.07	6.469
248.28	8.784
248.50	7.906
248.71	6.812
248.92	5.423
249.13	5.469
249.35	7.603
249.56	9.696
249.77	10.089
249.98	9.897
250.20	11.411
250.41	10.219
250.62	12.278
250.83	13.279
251.05	15.690
251.26	12.951
251.47	12.453
251.68	19.255
251.90	13.873
252.11	16.363
252.32	17.968
252.53	15.916
252.75	14.168
252.96	16.101
253.17	11.316
253.38	12.766
253.59	12.914
253.81	13.564
254.02	10.858
254.23	13.676
254.44	9.256
254.66	12.678
254.87	8.287
255.08	15.694
255.29	15.075
255.50	18.431
255.72	16.071
255.93	17.937
256.14	24.653
256.35	19.106
256.57	21.329
256.78	17.368
256.99	17.568
257.20	22.674
257.41	18.709
257.63	21.850
257.84	18.376
258.05	12.629
258.26	12.576
258.47	15.256
258.69	16.675
258.90	9.333
259.11	10.368
259.32	10.210
259.53	9.996
259.75	9.073
259.96	8.617
260.17	7.287
260.38	4.355
260.59	6.494
260.81	5.670
261.02	5.876
261.23	5.101
261.44	5.743
261.65	4.516
261.87	4.296
262.08	6.793
262.29	5.594
262.50	5.807
262.71	7.774
262.92	8.251
263.14	8.618
263.35	8.841
263.56	10.596
263.77	10.697
263.98	12.825
264.20	10.662
264.41	10.047
264.62	11.646
264.83	13.247
265.04	14.247
265.25	11.979
265.47	11.730
265.68	16.258
265.89	12.437
266.10	5.307
266.31	12.947
266.52	10.207
266.74	10.714
266.95	10.816
267.16	12.072
267.37	9.436
267.58	9.255
267.79	10.286
268.01	8.170
268.22	9.213
268.43	9.436
268.64	7.072
268.85	8.403
269.06	9.693
269.27	10.708
269.49	8.105
269.70	7.972
269.91	8.369
270.12	8.339
270.33	11.187
270.54	6.290
270.75	10.467
270.97	9.685
271.18	7.860
271.39	8.125
271.60	9.906
271.81	9.503
272.02	7.628
272.23	9.209
272.45	7.434
272.66	4.813
272.87	6.761
273.08	4.877
273.29	7.480
273.50	6.196
273.71	6.241
273.92	6.867
274.14	7.302
274.35	6.915
274.56	8.366
274.77	6.524
274.98	7.573
275.19	8.239
275.40	8.929
275.61	7.143
275.83	10.116
276.04	9.169
276.25	10.300
276.46	7.010
276.67	6.461
276.88	9.297
277.09	6.080
277.30	7.533
277.51	11.034
277.73	5.133
277.94	10.224
278.15	9.185
278.36	7.485
278.57	7.216
278.78	5.467
278.99	7.737
279.20	10.180
279.41	11.643
279.62	8.088
279.84	7.532
280.05	9.906
280.26	8.717
280.47	8.360
280.68	8.645
280.89	7.720
281.10	7.946
281.31	8.594
281.52	9.797
281.73	7.001
281.94	6.676
282.16	7.740
282.37	6.839
282.58	7.202
282.79	9.380
283.00	10.600
283.21	7.247
283.42	6.354
283.63	8.331
283.84	5.985
284.05	5.986
284.26	6.911
284.47	5.172
284.68	6.150
284.89	6.233
285.11	7.555
285.32	5.624
285.53	7.349
285.74	6.174
285.95	4.925
286.16	6.014
286.37	4.547
286.58	5.333
286.79	5.099
287.00	5.643
287.21	5.337
287.42	4.616
287.63	4.859
287.84	6.136
288.05	5.810
288.26	4.229
288.48	7.127
288.69	4.564
288.90	6.861
289.11	8.073
289.32	8.001
289.53	6.172
289.74	5.982
289.95	6.111
290.16	5.416
290.37	5.101
290.58	4.153
290.79	5.225
291.00	4.474
291.21	4.332
291.42	5.563
291.63	6.526
291.84	7.250
292.05	4.766
292.26	3.994
292.47	5.421
292.68	5.658
292.89	6.004
293.10	6.141
293.31	4.336
293.52	6.114
293.73	6.943
293.94	5.189
294.15	5.490
294.36	7.199
294.57	5.091
294.79	6.054
295.00	4.068
295.21	6.411
295.42	5.593
295.63	7.264
295.84	5.879
296.05	4.346
296.26	4.736
296.47	4.147
296.68	5.352
296.89	5.667
297.10	5.197
297.31	5.878
297.52	3.308
297.73	5.186
297.94	3.738
298.15	3.802
298.36	4.800
298.57	4.151
298.78	4.512
298.99	4.353
299.20	4.568
299.41	4.841
299.62	4.954
299.83	4.495
300.04	4.555
300.25	5.903
300.46	5.554
300.67	5.069
300.88	5.596
301.09	5.304
301.30	4.941
301.50	6.440
301.71	6.076
301.92	6.218
302.13	7.111
302.34	4.282
302.55	4.487
302.76	4.800
302.97	5.043
303.18	6.313
303.39	5.975
303.60	5.458
303.81	5.085
304.02	4.659
304.23	6.062
304.44	7.035
304.65	3.343
304.86	6.458
305.07	5.369
305.28	5.844
305.49	6.329
305.70	5.966
305.91	6.915
306.12	6.054
306.33	5.158
306.54	5.470
306.75	5.015
306.96	8.364
307.17	5.073
307.38	7.409
307.58	4.514
307.79	5.062
308.00	4.903
308.21	5.675
308.42	6.224
308.63	5.401
308.84	5.654
309.05	6.770
309.26	3.305
309.47	5.239
309.68	4.980
309.89	5.162
310.10	5.175
310.31	5.730
310.52	4.430
310.73	5.592
310.94	2.884
311.14	5.663
311.35	4.936
311.56	5.002
311.77	4.311
311.98	5.006
312.19	5.308
312.40	3.667
312.61	4.058
312.82	5.711
313.03	3.926
313.24	4.784
313.45	5.786
313.66	4.589
313.86	6.613
314.07	4.974
314.28	6.239
314.49	5.188
314.70	7.036
314.91	5.336
315.12	4.972
315.33	6.676
315.54	5.706
315.75	4.930
315.96	4.207
316.16	6.437
316.37	4.715
316.58	6.478
316.79	5.040
317.00	5.469
317.21	5.207
317.42	5.694
317.63	5.595
317.84	5.611
318.05	5.632
318.25	6.455
318.46	4.757
318.67	5.827
318.88	5.534
319.09	5.857
319.30	5.531
319.51	5.673
319.72	7.732
319.93	5.720
320.13	6.186
320.34	5.723
320.55	5.722
320.76	5.952
320.97	5.490
321.18	7.611
321.39	5.615
321.60	8.491
321.80	8.350
322.01	5.482
322.22	5.348
322.43	6.321
322.64	5.962
322.85	6.636
323.06	6.658
323.27	5.220
323.47	7.874
323.68	6.827
323.89	5.144
324.10	6.974
324.31	4.428
324.52	6.425
324.73	6.628
324.93	6.648
325.14	5.974
325.35	6.220
325.56	3.207
325.77	4.032
325.98	6.676
326.19	5.447
326.39	5.417
326.60	4.824
326.81	4.442
327.02	6.029
327.23	4.701
327.44	5.247
327.64	4.259
327.85	4.218
328.06	4.590
328.27	7.414
328.48	5.984
328.69	3.711
328.90	5.208
329.10	6.171
329.31	5.394
329.52	6.367
329.73	5.845
329.94	6.171
330.15	6.093
330.35	8.285
330.56	6.332
330.77	6.426
330.98	4.680
331.19	5.685
331.39	7.675
331.60	5.789
331.81	4.721
332.02	5.138
332.23	6.180
332.44	5.804
332.64	5.500
332.85	3.820
333.06	5.879
333.27	4.502
333.48	6.021
333.68	5.131
333.89	5.678
334.10	5.191
334.31	4.732
334.52	5.432
334.72	4.515
334.93	6.690
335.14	5.445
335.35	5.139
335.56	5.555
335.76	4.544
335.97	5.379
336.18	5.823
336.39	5.244
336.60	5.443
336.80	4.246
337.01	3.517
337.22	4.705
337.43	5.326
337.64	5.744
337.84	5.229
338.05	4.388
338.26	6.757
338.47	6.179
338.68	4.408
338.88	4.802
339.09	4.402
339.30	6.280
339.51	4.241
339.71	5.412
339.92	4.600
340.13	5.517
340.34	5.655
340.55	6.140
340.75	6.956
340.96	4.268
341.17	6.160
341.38	5.492
341.58	5.485
341.79	4.866
342.00	5.034
342.21	4.868
342.41	4.306
342.62	4.580
342.83	5.412
343.04	3.983
343.24	4.776
343.45	4.493
343.66	4.653
343.87	4.352
344.07	4.876
344.28	5.499
344.49	5.071
344.70	4.775
344.90	4.613
345.11	3.300
345.32	4.473
345.53	5.394
345.73	5.561
345.94	4.086
346.15	5.215
346.36	4.605
346.56	4.833
346.77	4.906
346.98	3.158
347.19	5.197
347.39	4.984
347.60	3.542
347.81	3.861
348.02	5.170
348.22	4.992
348.43	4.416
348.64	5.110
348.84	5.022
349.05	5.680
349.26	6.521
349.47	4.712
349.67	5.331
349.88	5.199
350.09	5.185
350.30	7.042
350.50	4.775
350.71	5.419
350.92	5.074
351.12	6.198
351.33	4.821
351.54	5.306
351.74	6.154
351.95	4.848
352.16	7.023
352.37	5.293
352.57	6.162
352.78	6.515
352.99	5.981
353.19	6.415
353.40	5.791
353.61	6.973
353.82	7.215
354.02	7.845
354.23	6.067
354.44	8.359
354.64	5.797
354.85	6.278
355.06	5.972
355.26	5.511
355.47	6.388
355.68	6.788
355.88	7.728
356.09	7.452
356.30	6.083
356.51	8.553
356.71	7.579
356.92	6.024
357.13	8.421
357.33	8.806
357.54	7.518
357.75	6.002
357.95	8.343
358.16	7.293
358.37	8.785
358.57	6.942
358.78	9.537
358.99	6.805
359.19	6.888
359.40	9.192
359.61	8.502
359.81	8.982
360.02	11.469
360.23	7.651
360.43	8.022
360.64	8.127
360.85	8.987
361.05	7.332
361.26	9.750
361.47	8.057
361.67	10.712
361.88	7.133
362.09	9.815
362.29	7.840
362.50	8.609
362.70	7.280
362.91	10.039
363.12	8.224
363.32	9.765
363.53	9.637
363.74	10.089
363.94	7.361
364.15	11.855
364.36	11.159
364.56	9.274
364.77	10.869
364.98	12.365
365.18	9.414
365.39	11.602
365.59	8.889
365.80	9.656
366.01	11.004
366.21	10.236
366.42	8.531
366.63	11.442
366.83	8.893
367.04	8.036
367.24	11.519
367.45	8.802
367.66	7.949
367.86	9.778
368.07	10.095
368.28	9.526
368.48	10.615
368.69	8.732
368.89	9.865
369.10	9.458
369.31	9.687
369.51	10.924
369.72	11.844
369.92	12.457
370.13	8.030
370.34	10.618
370.54	6.985
370.75	10.544
370.95	8.526
371.16	10.271
371.37	10.638
371.57	9.410
371.78	9.856
371.98	10.555
372.19	10.744
372.40	11.140
372.60	10.618
372.81	11.741
373.01	8.604
373.22	9.118
373.43	10.586
373.63	10.825
373.84	10.566
374.04	10.903
374.25	10.625
374.46	12.523
374.66	10.220
374.87	12.184
375.07	8.776
375.28	10.148
375.48	10.396
375.69	11.720
375.90	9.532
376.10	9.505
376.31	10.729
376.51	9.626
376.72	10.454
376.92	9.871
377.13	10.726
377.34	11.357
377.54	10.802
377.75	11.803
377.95	10.632
378.16	12.193
378.36	10.905
378.57	13.111
378.77	11.096
378.98	12.606
379.19	10.545
379.39	10.153
379.60	11.110
379.80	11.209
380.01	12.933
380.21	11.956
380.42	12.785
380.62	11.892
380.83	12.680
381.04	11.793
381.24	12.155
381.45	12.923
381.65	11.206
381.86	12.461
382.06	11.674
382.27	11.786
382.47	11.568
382.68	13.817
382.88	10.580
383.09	11.761
383.29	12.333
383.50	14.196
383.71	11.129
383.91	13.164
384.12	12.673
384.32	13.285
384.53	13.100
384.73	12.553
384.94	12.306
385.14	12.930
385.35	11.987
385.55	13.904
385.76	12.930
385.96	13.531
386.17	13.911
386.37	14.673
386.58	13.473
386.78	14.831
386.99	12.787
387.19	15.085
387.40	13.867
387.60	15.823
387.81	13.567
388.01	14.134
388.22	14.784
388.42	16.658
388.63	15.821
388.83	17.027
389.04	13.323
389.24	15.322
389.45	14.737
389.65	15.213
389.86	14.833
390.06	14.786
390.27	15.294
390.47	15.502
390.68	15.561
390.88	17.526
391.09	16.305
391.29	17.182
391.50	16.414
391.70	17.414
391.91	16.047
392.11	17.215
392.32	16.939
392.52	18.730
392.73	17.574
392.93	18.422
393.14	17.217
393.34	17.513
393.55	19.007
393.75	18.358
393.95	17.375
394.16	19.074
394.36	18.593
394.57	19.114
394.77	18.292
394.98	19.436
395.18	18.463
395.39	19.032
395.59	18.655
395.80	19.415
396.00	19.105
396.21	19.650
396.41	18.325
396.61	20.133
396.82	19.146
397.02	21.193
397.23	18.821
397.43	19.755
397.64	18.943
397.84	20.554
398.05	18.816
398.25	20.329
398.45	19.761
398.66	20.255
398.86	19.147
399.07	21.089
399.27	19.486
399.48	20.641
399.68	19.319
399.89	20.073
400.09	20.209
400.29	19.788
400.50	19.621
400.70	20.451
400.91	19.784
401.11	20.596
401.32	20.453
401.52	18.763
401.72	19.930
401.93	21.478
402.13	20.003
402.34	20.239
402.54	18.983
402.75	21.956
402.95	18.820
403.15	21.441
403.36	20.079
403.56	22.587
403.77	19.376
403.97	20.618
404.17	19.953
404.38	21.112
404.58	20.321
404.79	21.321
404.99	20.780
405.19	20.929
405.40	20.888
405.60	20.589
405.81	20.480
406.01	21.395
406.21	20.581
406.42	21.855
406.62	21.201
406.83	20.859
407.03	22.114
407.23	20.921
407.44	20.050
407.64	21.420
407.85	21.635
408.05	21.017
408.25	20.765
408.46	22.706
408.66	20.958
408.87	21.493
409.07	20.321
409.27	20.179
409.48	20.031
409.68	21.004
409.88	19.532
410.09	20.549
410.29	20.834
410.50	22.163
410.70	19.890
410.90	20.748
411.11	20.237
411.31	20.829
411.51	20.862
411.72	21.673
411.92	20.074
412.12	21.464
412.33	20.784
412.53	20.333
412.74	19.115
412.94	21.008
413.14	20.620
413.35	21.514
413.55	21.069
413.75	21.401
413.96	20.125
414.16	20.907
414.36	20.094
414.57	21.237
414.77	19.854
414.97	21.048
415.18	19.875
415.38	21.240
415.58	19.900
415.79	20.215
415.99	19.806
416.19	21.286
416.40	20.778
416.60	20.473
416.80	19.990
417.01	21.265
417.21	19.423
417.41	20.737
417.62	19.450
417.82	20.755
418.02	19.859
418.23	21.018
418.43	20.591
418.63	21.077
418.84	20.638
419.04	19.955
419.24	20.349
419.45	20.052
419.65	20.343
419.85	21.126
420.06	20.165
420.26	21.142
420.46	20.455
420.67	20.025
420.87	20.173
421.07	20.226
421.28	20.251
421.48	20.437
421.68	20.882
421.88	20.530
422.09	20.456
422.29	20.773
422.49	20.413
422.70	20.354
422.90	20.742
423.10	20.732
423.31	20.534
423.51	20.509
423.71	20.685
423.91	20.543
424.12	20.426
424.32	20.788
424.52	20.127
424.73	20.573
424.93	20.883
425.13	20.315
425.33	20.306
425.54	20.203
425.74	20.490
425.94	20.723
426.15	20.724
426.35	20.790
426.55	20.719
426.75	21.363
426.96	20.882
427.16	20.701
427.36	21.206
427.57	21.521
427.77	20.858
427.97	21.405
428.17	21.438
428.38	21.231
428.58	20.510
428.78	21.279
428.98	21.177
429.19	20.812
429.39	20.659
429.59	21.005
429.79	20.036
430.00	20.720
430.20	20.501
430.40	20.588
430.60	21.015
430.81	20.553
431.01	20.522
431.21	21.094
431.41	20.143
431.62	21.382
431.82	20.383
432.02	20.903
432.22	20.849
432.43	21.320
432.63	21.019
432.83	21.228
433.03	20.642
433.24	21.236
433.44	20.816
433.64	21.307
433.84	20.774
434.05	21.540
434.25	21.634
434.45	21.730
434.65	21.740
434.85	21.356
435.06	21.520
435.26	21.134
435.46	22.180
435.66	21.927
435.87	21.786
436.07	22.171
436.27	21.749
436.47	21.711
436.67	22.055
436.88	21.859
437.08	21.889
437.28	22.239
437.48	21.454
437.69	22.467
437.89	21.966
438.09	22.193
438.29	22.264
438.49	22.370
438.70	21.741
438.90	21.835
439.10	21.195
439.30	21.814
439.50	21.977
439.71	22.326
439.91	22.098
440.11	22.146
440.31	21.824
440.51	22.088
440.72	22.198
440.92	21.552
441.12	22.721
441.32	22.399
441.52	22.595
441.72	22.447
441.93	22.537
442.13	23.199
442.33	22.716
442.53	22.978
442.73	22.928
442.94	23.038
443.14	23.317
443.34	23.164
443.54	22.455
443.74	23.025
443.94	23.119
444.15	22.775
444.35	22.925
444.55	22.915
444.75	22.661
444.95	22.748
445.15	22.383
445.36	22.239
445.56	22.810
445.76	22.329
445.96	22.287
446.16	22.501
446.36	22.448
446.57	22.280
446.77	22.536
446.97	22.537
447.17	22.678
447.37	22.939
447.57	22.787
447.77	22.705
447.98	22.817
448.18	22.923
448.38	22.824
448.58	23.117
448.78	23.121
448.98	23.176
449.18	23.043
449.39	23.770
449.59	23.394
449.79	23.210
449.99	23.530
450.19	23.830
450.39	23.396
450.59	23.459
450.79	23.563
451.00	22.889
451.20	24.468
451.40	24.055
451.60	23.673
451.80	23.450
452.00	23.197
452.20	23.595
452.40	22.985
452.61	23.242
452.81	23.205
453.01	22.772
453.21	22.858
453.41	23.220
453.61	23.394
453.81	23.149
454.01	23.729
454.21	23.650
454.42	23.203
454.62	23.723
454.82	23.427
455.02	23.384
455.22	23.397
455.42	23.436
455.62	23.531
455.82	23.251
456.02	23.428
456.23	23.088
456.43	22.616
456.63	23.486
456.83	22.901
457.03	23.601
457.23	23.205
457.43	23.757
457.63	23.324
457.83	23.360
458.03	23.272
458.23	23.285
458.43	22.890
458.64	23.129
458.84	23.305
459.04	23.143
459.24	22.723
459.44	22.536
459.64	22.534
459.84	21.963
460.04	22.556
460.24	22.878
460.44	22.798
460.64	22.664
460.84	23.044
461.04	23.143
461.24	23.069
461.45	23.206
461.65	23.726
461.85	23.269
462.05	23.526
462.25	23.837
462.45	23.399
462.65	23.441
462.85	23.960
463.05	23.637
463.25	23.389
463.45	23.819
463.65	23.577
463.85	23.027
464.05	23.244
464.25	23.985
464.45	22.942
464.65	23.426
464.85	23.782
465.05	23.392
465.26	23.770
465.46	23.619
465.66	23.203
465.86	23.733
466.06	23.915
466.26	23.116
466.46	22.742
466.66	23.740
466.86	23.012
467.06	22.985
467.26	23.251
467.46	23.479
467.66	23.203
467.86	23.599
468.06	23.580
468.26	24.269
468.46	23.615
468.66	23.276
468.86	23.385
469.06	23.738
469.26	23.509
469.46	23.753
