SpectraSuite Data File
++++++++++++++++++++++++++++++++++++
Date: Mon Sep 23 03:45:03 EST 2019
User: sgrac
Dark Spectrum Present: Yes
Reference Spectrum Present: Yes
Number of Sampled Component Spectra: 1
Spectrometers: USB4E01596
Integration Time (usec): 100000 (USB4E01596)
Spectra Averaged: 3 (USB4E01596)
Boxcar Smoothing: 0 (USB4E01596)
Correct for Electrical Dark: No (USB4E01596)
Strobe/Lamp Enabled: Yes (USB4E01596)
Correct for Detector Non-linearity: No (USB4E01596)
Correct for Stray Light: No (USB4E01596)
Number of Pixels in Processed Spectrum: 3648
>>>>>Begin Processed Spectral Data<<<<<
178.44	1400.000
178.66	1400.000
178.87	1400.000
179.09	7966.667
179.30	-6250.000
179.52	-667.742
179.74	-358.491
179.95	620.455
180.17	-663.889
180.38	464.912
180.60	-2690.909
180.82	655.556
181.03	4550.000
181.25	-2008.333
181.46	-1220.000
181.68	1304.167
181.89	-586.364
182.11	-1875.000
182.33	-1912.500
182.54	664.583
182.76	3700.000
182.97	-540.426
183.19	1435.000
183.40	220.661
183.62	306.410
183.84	273.636
184.05	3957.143
184.27	468.182
184.48	412.121
184.70	1500.000
184.91	1352.381
185.13	2830.000
185.34	-15050.000
185.56	1176.923
185.78	366.667
185.99	1100.000
186.21	359.091
186.42	-4525.000
186.64	2340.000
186.85	-5720.000
187.07	600.000
187.28	414.474
187.50	478.182
187.72	250.000
187.93	774.545
188.15	361.458
188.36	417.105
188.58	471.429
188.79	314.423
189.01	421.127
189.22	813.514
189.44	-1018.182
189.65	269.492
189.87	-6725.000
190.09	441.270
190.30	735.714
190.52	520.000
190.73	582.609
190.95	-3866.667
191.16	320.238
191.38	455.405
191.59	510.294
191.81	556.452
192.02	2086.667
192.24	790.625
192.45	894.118
192.67	-1750.000
192.88	522.642
193.10	537.705
193.31	780.000
193.53	284.677
193.74	377.333
193.96	1571.429
194.18	953.846
194.39	2246.667
194.61	535.616
194.82	1400.000
195.04	410.976
195.25	-424.561
195.47	-525.926
195.68	4383.333
195.90	561.818
196.11	343.284
196.33	24300.000
196.54	858.537
196.76	1728.571
196.97	374.026
197.19	910.811
197.40	2092.857
197.62	250.459
197.83	809.677
198.05	521.818
198.26	1034.483
198.48	454.930
198.69	451.667
198.91	1161.111
199.12	723.256
199.34	539.130
199.55	372.857
199.77	1952.632
199.98	888.235
200.20	453.947
200.41	435.484
200.63	322.124
200.84	1664.286
201.06	2944.444
201.27	843.902
201.49	407.042
201.70	-840.000
201.91	543.056
202.13	427.119
202.34	448.276
202.56	-932.000
202.77	602.222
202.99	4516.667
203.20	-3450.000
203.42	1593.750
203.63	384.211
203.85	6200.000
204.06	508.000
204.28	283.838
204.49	501.852
204.71	391.525
204.92	915.385
205.14	0.000
205.35	780.000
205.56	-1260.000
205.78	6300.000
205.99	-1814.286
206.21	13600.000
206.42	625.000
206.64	1016.129
206.85	818.519
207.07	-3255.556
207.28	470.690
207.50	691.304
207.71	1077.419
207.93	337.349
208.14	-985.185
208.35	423.636
208.57	952.000
208.78	-2500.000
209.00	360.638
209.21	-13750.000
209.43	-8800.000
209.64	-1993.333
209.86	259.794
210.07	373.256
210.28	457.746
210.50	948.276
210.71	374.510
210.93	203.676
211.14	371.910
211.36	1737.500
211.57	492.424
211.78	360.000
212.00	376.471
212.21	457.143
212.43	771.795
212.64	371.277
212.86	428.378
213.07	294.495
213.29	-525.000
213.50	279.348
213.71	352.874
213.93	334.146
214.14	1981.818
214.36	420.588
214.57	303.797
214.78	633.333
215.00	311.458
215.21	823.333
215.43	770.270
215.64	406.349
215.86	356.250
216.07	851.429
216.28	642.105
216.50	265.000
216.71	24600.000
216.93	515.152
217.14	1288.889
217.35	318.182
217.57	295.495
217.78	417.284
218.00	303.030
218.21	1191.304
218.42	674.468
218.64	494.643
218.85	548.000
219.07	1100.000
219.28	294.393
219.49	435.294
219.71	443.077
219.92	208.209
220.14	321.649
220.35	362.667
220.56	304.598
220.78	269.231
220.99	300.806
221.21	306.452
221.42	407.407
221.63	197.688
221.85	463.077
222.06	364.286
222.28	398.462
222.49	265.766
222.70	225.197
222.92	679.592
223.13	459.016
223.34	226.950
223.56	283.333
223.77	288.750
223.99	291.579
224.20	496.429
224.41	335.616
224.63	278.409
224.84	220.270
225.05	135.897
225.27	230.435
225.48	233.333
225.69	187.218
225.91	304.054
226.12	219.380
226.34	189.933
226.55	120.144
226.76	233.750
226.98	145.490
227.19	125.781
227.40	225.000
227.62	136.508
227.83	114.592
228.04	90.503
228.26	71.465
228.47	77.337
228.69	55.584
228.90	48.614
229.11	61.329
229.33	37.147
229.54	32.432
229.75	36.738
229.97	47.106
230.18	34.382
230.39	30.531
230.61	29.357
230.82	30.898
231.03	28.026
231.25	38.422
231.46	32.353
231.67	35.387
231.89	45.265
232.10	40.551
232.31	47.589
232.53	50.764
232.74	55.888
232.95	50.635
233.17	52.000
233.38	44.958
233.59	48.609
233.81	57.246
234.02	51.503
234.23	58.333
234.45	51.736
234.66	39.381
234.87	59.016
235.09	51.286
235.30	46.235
235.51	49.644
235.73	48.794
235.94	43.687
236.15	53.148
236.36	39.813
236.58	43.838
236.79	39.528
237.00	48.534
237.22	54.422
237.43	41.359
237.64	55.433
237.86	46.617
238.07	37.457
238.28	48.387
238.50	50.169
238.71	52.518
238.92	48.437
239.13	48.814
239.35	44.168
239.56	51.943
239.77	57.143
239.99	38.928
240.20	47.507
240.41	33.572
240.63	36.523
240.84	34.328
241.05	27.811
241.26	32.645
241.48	23.780
241.69	25.201
241.90	25.457
242.12	20.028
242.33	21.289
242.54	12.160
242.75	17.692
242.97	16.185
243.18	13.360
243.39	12.397
243.61	16.044
243.82	10.131
244.03	14.491
244.24	13.171
244.46	15.847
244.67	12.995
244.88	14.887
245.09	19.681
245.31	18.946
245.52	16.395
245.73	17.533
245.95	28.460
246.16	19.021
246.37	11.599
246.58	18.646
246.80	16.192
247.01	15.067
247.22	12.418
247.43	10.393
247.65	9.572
247.86	10.996
248.07	9.041
248.28	8.515
248.50	7.020
248.71	8.138
248.92	6.647
249.13	5.782
249.35	7.628
249.56	9.009
249.77	8.453
249.98	9.624
250.20	11.380
250.41	10.949
250.62	12.694
250.83	16.240
251.05	18.856
251.26	13.829
251.47	16.782
251.68	18.746
251.90	13.041
252.11	14.112
252.32	19.989
252.53	11.147
252.75	17.762
252.96	15.146
253.17	15.294
253.38	14.124
253.59	14.660
253.81	13.830
254.02	13.412
254.23	13.492
254.44	7.956
254.66	13.552
254.87	15.967
255.08	19.895
255.29	15.766
255.50	16.919
255.72	22.571
255.93	22.945
256.14	23.344
256.35	21.880
256.57	25.128
256.78	19.663
256.99	16.366
257.20	26.219
257.41	21.476
257.63	19.705
257.84	18.125
258.05	14.046
258.26	14.692
258.47	17.762
258.69	19.072
258.90	12.193
259.11	13.914
259.32	13.277
259.53	8.881
259.75	10.307
259.96	10.278
260.17	8.426
260.38	5.217
260.59	7.428
260.81	4.278
261.02	5.418
261.23	6.077
261.44	6.119
261.65	4.588
261.87	4.891
262.08	6.087
262.29	6.367
262.50	7.042
262.71	7.165
262.92	7.705
263.14	9.747
263.35	9.587
263.56	9.345
263.77	10.734
263.98	11.932
264.20	11.204
264.41	11.196
264.62	11.734
264.83	12.430
265.04	16.005
265.25	14.553
265.47	13.815
265.68	13.807
265.89	13.032
266.10	9.877
266.31	13.333
266.52	10.791
266.74	10.204
266.95	14.099
267.16	11.474
267.37	9.935
267.58	10.438
267.79	7.565
268.01	7.495
268.22	9.883
268.43	9.728
268.64	9.055
268.85	11.558
269.06	9.788
269.27	11.592
269.49	8.203
269.70	9.908
269.91	9.284
270.12	9.215
270.33	11.325
270.54	6.895
270.75	9.746
270.97	10.523
271.18	7.860
271.39	10.749
271.60	9.906
271.81	7.204
272.02	6.880
272.23	7.913
272.45	9.006
272.66	5.879
272.87	7.393
273.08	6.928
273.29	7.211
273.50	5.870
273.71	5.975
273.92	6.337
274.14	7.761
274.35	7.104
274.56	7.153
274.77	6.474
274.98	7.787
275.19	5.368
275.40	8.815
275.61	6.912
275.83	9.942
276.04	7.450
276.25	9.841
276.46	8.168
276.67	8.912
276.88	8.925
277.09	9.105
277.30	7.657
277.51	10.253
277.73	6.752
277.94	7.737
278.15	9.303
278.36	8.585
278.57	8.973
278.78	7.791
278.99	9.001
279.20	10.051
279.41	10.759
279.62	7.657
279.84	10.240
280.05	10.219
280.26	10.896
280.47	10.481
280.68	6.575
280.89	8.780
281.10	10.298
281.31	7.465
281.52	9.825
281.73	7.888
281.94	6.324
282.16	8.247
282.37	6.654
282.58	7.306
282.79	9.504
283.00	8.780
283.21	6.205
283.42	7.049
283.63	7.923
283.84	6.748
284.05	6.685
284.26	6.363
284.47	5.621
284.68	6.008
284.89	7.234
285.11	8.670
285.32	5.892
285.53	6.621
285.74	6.760
285.95	5.094
286.16	6.850
286.37	6.620
286.58	5.033
286.79	5.117
287.00	5.442
287.21	4.807
287.42	5.099
287.63	5.729
287.84	5.671
288.05	5.148
288.26	5.262
288.48	7.267
288.69	2.689
288.90	6.287
289.11	6.997
289.32	7.422
289.53	6.807
289.74	5.768
289.95	6.305
290.16	5.765
290.37	5.101
290.58	5.634
290.79	5.266
291.00	5.040
291.21	5.463
291.42	5.444
291.63	5.911
291.84	7.212
292.05	4.529
292.26	4.035
292.47	6.229
292.68	4.997
292.89	5.941
293.10	6.225
293.31	5.760
293.52	5.795
293.73	7.104
293.94	6.452
294.15	6.879
294.36	8.825
294.57	5.251
294.79	6.008
295.00	6.008
295.21	5.849
295.42	7.120
295.63	5.940
295.84	6.085
296.05	4.721
296.26	4.398
296.47	5.728
296.68	4.730
296.89	7.012
297.10	5.442
297.31	6.489
297.52	3.390
297.73	6.152
297.94	4.768
298.15	4.402
298.36	4.216
298.57	3.733
298.78	4.411
298.99	4.454
299.20	5.391
299.41	3.703
299.62	5.199
299.83	4.334
300.04	5.291
300.25	4.396
300.46	5.960
300.67	5.689
300.88	5.995
301.09	5.204
301.30	5.243
301.50	6.440
301.71	5.749
301.92	6.528
302.13	6.104
302.34	3.696
302.55	5.327
302.76	5.568
302.97	5.105
303.18	7.458
303.39	5.832
303.60	7.003
303.81	5.993
304.02	5.017
304.23	6.042
304.44	7.244
304.65	5.451
304.86	5.884
305.07	5.781
305.28	5.578
305.49	6.028
305.70	6.334
305.91	5.665
306.12	6.263
306.33	5.366
306.54	5.062
306.75	6.018
306.96	7.926
307.17	6.829
307.38	6.102
307.58	6.649
307.79	5.416
308.00	6.162
308.21	6.124
308.42	4.926
308.63	5.226
308.84	5.387
309.05	6.261
309.26	4.573
309.47	6.025
309.68	5.320
309.89	6.375
310.10	5.813
310.31	5.282
310.52	4.988
310.73	6.153
310.94	2.712
311.14	5.509
311.35	3.987
311.56	5.166
311.77	3.913
311.98	4.474
312.19	5.150
312.40	4.181
312.61	3.703
312.82	5.122
313.03	4.271
313.24	6.047
313.45	4.682
313.66	4.418
313.86	6.738
314.07	5.030
314.28	5.380
314.49	4.581
314.70	8.058
314.91	6.415
315.12	4.422
315.33	7.102
315.54	5.123
315.75	4.847
315.96	5.239
316.16	4.889
316.37	5.899
316.58	5.653
316.79	6.060
317.00	6.945
317.21	6.116
317.42	5.186
317.63	5.066
317.84	4.973
318.05	5.230
318.25	6.580
318.46	5.073
318.67	5.253
318.88	5.059
319.09	5.752
319.30	5.214
319.51	5.737
319.72	6.843
319.93	5.741
320.13	7.248
320.34	7.803
320.55	6.651
320.76	6.664
320.97	4.494
321.18	6.471
321.39	5.134
321.60	7.555
321.80	7.106
322.01	6.720
322.22	4.456
322.43	6.120
322.64	7.040
322.85	6.706
323.06	6.391
323.27	7.454
323.47	8.196
323.68	6.462
323.89	6.352
324.10	6.562
324.31	5.742
324.52	5.955
324.73	6.628
324.93	5.987
325.14	5.300
325.35	5.146
325.56	4.313
325.77	5.549
325.98	6.318
326.19	5.465
326.39	4.918
326.60	5.277
326.81	4.779
327.02	6.138
327.23	5.453
327.44	4.682
327.64	4.102
327.85	3.908
328.06	5.671
328.27	6.757
328.48	5.065
328.69	4.923
328.90	4.835
329.10	7.160
329.31	5.851
329.52	5.586
329.73	7.832
329.94	5.562
330.15	6.356
330.35	7.810
330.56	5.873
330.77	6.365
330.98	4.659
331.19	5.945
331.39	6.225
331.60	7.196
331.81	4.803
332.02	5.562
332.23	5.496
332.44	4.886
332.64	6.364
332.85	4.453
333.06	5.937
333.27	4.698
333.48	4.450
333.68	5.741
333.89	5.659
334.10	6.236
334.31	5.961
334.52	5.508
334.72	4.013
334.93	5.322
335.14	4.649
335.35	3.923
335.56	5.969
335.76	4.985
335.97	5.233
336.18	6.364
336.39	5.482
336.60	5.480
336.80	4.832
337.01	3.156
337.22	4.791
337.43	4.047
337.64	5.086
337.84	5.738
338.05	4.703
338.26	7.320
338.47	6.986
338.68	5.666
338.88	4.255
339.09	3.490
339.30	5.441
339.51	5.892
339.71	5.166
339.92	4.833
340.13	5.255
340.34	6.879
340.55	5.949
340.75	6.992
340.96	4.756
341.17	6.249
341.38	5.457
341.58	5.260
341.79	5.004
342.00	4.592
342.21	4.596
342.41	4.203
342.62	5.299
342.83	6.004
343.04	4.149
343.24	3.881
343.45	4.657
343.66	3.936
343.87	3.905
344.07	4.058
344.28	5.059
344.49	4.488
344.70	5.017
344.90	4.662
345.11	3.128
345.32	4.442
345.53	4.658
345.73	5.681
345.94	3.767
346.15	5.502
346.36	3.675
346.56	5.055
346.77	4.532
346.98	4.465
347.19	4.832
347.39	4.442
347.60	5.014
347.81	4.083
348.02	5.446
348.22	5.351
348.43	5.202
348.64	5.030
348.84	4.762
349.05	4.312
349.26	6.016
349.47	4.824
349.67	5.170
349.88	5.151
350.09	5.420
350.30	7.267
350.50	4.868
350.71	4.668
350.92	4.369
351.12	5.293
351.33	4.404
351.54	4.562
351.74	4.930
351.95	4.709
352.16	5.646
352.37	5.215
352.57	4.920
352.78	5.586
352.99	4.542
353.19	4.779
353.40	5.223
353.61	6.752
353.82	5.246
354.02	7.059
354.23	5.632
354.44	6.193
354.64	5.417
354.85	5.005
355.06	4.146
355.26	5.481
355.47	4.835
355.68	4.506
355.88	5.383
356.09	5.373
356.30	5.230
356.51	6.301
356.71	4.448
356.92	4.975
357.13	6.082
357.33	5.951
357.54	4.704
357.75	4.078
357.95	4.765
358.16	4.227
358.37	5.356
358.57	4.661
358.78	6.374
358.99	5.259
359.19	5.385
359.40	5.218
359.61	5.006
359.81	6.020
360.02	6.305
360.23	3.942
360.43	4.813
360.64	5.261
360.85	5.208
361.05	4.869
361.26	5.325
361.47	4.815
361.67	6.171
361.88	4.759
362.09	5.690
362.29	5.049
362.50	4.233
362.70	3.721
362.91	5.247
363.12	4.015
363.32	4.976
363.53	5.415
363.74	5.561
363.94	4.027
364.15	6.341
364.36	6.178
364.56	4.359
364.77	6.116
364.98	7.035
365.18	5.329
365.39	6.110
365.59	5.397
365.80	6.320
366.01	6.696
366.21	5.556
366.42	3.884
366.63	6.980
366.83	5.257
367.04	3.863
367.24	7.171
367.45	4.985
367.66	4.569
367.86	6.363
368.07	5.939
368.28	5.577
368.48	6.217
368.69	3.773
368.89	5.104
369.10	5.747
369.31	6.248
369.51	6.057
369.72	7.325
369.92	7.601
370.13	5.397
370.34	5.653
370.54	3.815
370.75	6.234
370.95	4.793
371.16	6.220
371.37	5.922
371.57	6.192
371.78	6.087
371.98	6.156
372.19	6.257
372.40	6.895
372.60	6.234
372.81	6.537
373.01	4.415
373.22	5.162
373.43	6.643
373.63	5.959
373.84	6.381
374.04	6.383
374.25	6.082
374.46	6.801
374.66	6.095
374.87	7.210
375.07	4.463
375.28	5.597
375.48	6.033
375.69	6.384
375.90	4.971
376.10	4.876
376.31	6.367
376.51	4.935
376.72	6.357
376.92	4.671
377.13	6.641
377.34	6.987
377.54	5.891
377.75	7.323
377.95	4.935
378.16	6.943
378.36	7.010
378.57	7.941
378.77	6.052
378.98	6.258
379.19	5.725
379.39	4.654
379.60	6.295
379.80	5.792
380.01	6.985
380.21	5.408
380.42	7.380
380.62	6.216
380.83	7.576
381.04	5.477
381.24	6.826
381.45	6.847
381.65	5.575
381.86	6.086
382.06	7.119
382.27	5.645
382.47	6.182
382.68	7.741
382.88	6.325
383.09	6.026
383.29	7.430
383.50	8.574
383.71	6.329
383.91	7.376
384.12	6.586
384.32	7.625
384.53	7.003
384.73	5.902
384.94	6.662
385.14	7.350
385.35	6.137
385.55	7.813
385.76	7.067
385.96	6.890
386.17	7.932
386.37	8.339
386.58	7.850
386.78	8.475
386.99	6.790
387.19	9.307
387.40	7.225
387.60	9.796
387.81	7.748
388.01	8.060
388.22	8.489
388.42	10.375
388.63	9.900
388.83	10.431
389.04	7.318
389.24	9.106
389.45	9.109
389.65	9.052
389.86	8.134
390.06	8.745
390.27	8.473
390.47	9.030
390.68	8.301
390.88	10.350
391.09	10.045
391.29	10.536
391.50	9.834
391.70	10.853
391.91	9.804
392.11	10.116
392.32	10.289
392.52	11.254
392.73	9.931
392.93	11.423
393.14	10.574
393.34	10.447
393.55	11.524
393.75	11.428
393.95	10.314
394.16	11.934
394.36	11.370
394.57	12.408
394.77	11.110
394.98	12.054
395.18	12.178
395.39	11.859
395.59	11.970
395.80	11.504
396.00	12.116
396.21	13.371
396.41	11.096
396.61	12.820
396.82	12.482
397.02	14.653
397.23	11.685
397.43	12.889
397.64	10.431
397.84	13.968
398.05	10.359
398.25	13.465
398.45	12.542
398.66	13.459
398.86	12.526
399.07	14.240
399.27	12.380
399.48	14.149
399.68	12.563
399.89	13.113
400.09	12.961
400.29	12.201
400.50	12.958
400.70	14.051
400.91	12.170
401.11	13.244
401.32	13.646
401.52	12.572
401.72	13.032
401.93	14.988
402.13	13.207
402.34	13.560
402.54	12.410
402.75	14.748
402.95	11.610
403.15	14.621
403.36	12.420
403.56	14.784
403.77	12.984
403.97	13.714
404.17	13.660
404.38	14.741
404.58	13.471
404.79	15.149
404.99	14.768
405.19	14.357
405.40	13.916
405.60	14.709
405.81	13.479
406.01	14.035
406.21	13.877
406.42	15.033
406.62	14.178
406.83	14.949
407.03	15.121
407.23	14.131
407.44	14.074
407.64	16.023
407.85	14.959
408.05	14.295
408.25	15.037
408.46	15.657
408.66	14.945
408.87	14.172
409.07	13.913
409.27	13.729
409.48	13.638
409.68	14.808
409.88	12.508
410.09	13.873
410.29	14.332
410.50	15.281
410.70	13.191
410.90	14.695
411.11	13.530
411.31	14.196
411.51	14.598
411.72	15.327
411.92	14.076
412.12	14.803
412.33	13.195
412.53	13.842
412.74	13.132
412.94	14.363
413.14	13.969
413.35	14.535
413.55	14.134
413.75	16.122
413.96	13.368
414.16	14.303
414.36	13.724
414.57	15.425
414.77	14.304
414.97	15.396
415.18	13.764
415.38	14.735
415.58	14.504
415.79	13.622
415.99	13.682
416.19	15.254
416.40	14.303
416.60	14.276
416.80	13.682
417.01	15.390
417.21	13.284
417.41	15.088
417.62	14.123
417.82	14.920
418.02	13.773
418.23	15.087
418.43	14.223
418.63	14.760
418.84	14.664
419.04	14.633
419.24	15.407
419.45	15.432
419.65	14.961
419.85	15.332
420.06	15.274
420.26	15.497
420.46	14.640
420.67	15.169
420.87	14.711
421.07	15.018
421.28	15.072
421.48	15.176
421.68	15.281
421.88	15.207
422.09	15.091
422.29	15.117
422.49	14.868
422.70	14.971
422.90	14.948
423.10	15.316
423.31	15.644
423.51	15.137
423.71	15.105
423.91	15.430
424.12	15.434
424.32	15.347
424.52	14.927
424.73	15.330
424.93	15.215
425.13	15.112
425.33	14.957
425.54	15.053
425.74	15.514
425.94	15.207
426.15	15.933
426.35	15.333
426.55	15.514
426.75	15.707
426.96	15.633
427.16	15.300
427.36	15.559
427.57	15.582
427.77	15.230
427.97	15.871
428.17	15.469
428.38	15.914
428.58	14.643
428.78	15.994
428.98	15.071
429.19	14.717
429.39	14.688
429.59	15.387
429.79	14.364
430.00	14.314
430.20	14.335
430.40	14.985
430.60	14.937
430.81	15.245
431.01	14.480
431.21	15.188
431.41	14.306
431.62	15.851
431.82	14.609
432.02	15.248
432.22	14.942
432.43	15.658
432.63	15.180
432.83	15.438
433.03	15.014
433.24	15.081
433.44	15.210
433.64	15.459
433.84	15.181
434.05	16.063
434.25	15.644
434.45	16.128
434.65	15.916
434.85	16.232
435.06	16.076
435.26	15.981
435.46	15.571
435.66	16.499
435.87	16.406
436.07	16.296
436.27	16.122
436.47	16.063
436.67	15.961
436.88	16.431
437.08	15.935
437.28	16.546
437.48	16.219
437.69	16.404
437.89	16.295
438.09	16.665
438.29	15.922
438.49	16.412
438.70	15.837
438.90	16.536
439.10	15.867
439.30	16.585
439.50	15.934
439.71	16.500
439.91	16.472
440.11	16.852
440.31	16.514
440.51	16.126
440.72	16.459
440.92	16.406
441.12	16.693
441.32	16.724
441.52	16.931
441.72	16.732
441.93	16.658
442.13	17.165
442.33	17.086
442.53	17.087
442.73	16.786
442.94	16.937
443.14	17.201
443.34	17.380
443.54	17.029
443.74	17.077
443.94	17.185
444.15	16.843
444.35	17.153
444.55	16.916
444.75	16.636
444.95	16.871
445.15	16.869
445.36	16.658
445.56	16.645
445.76	16.842
445.96	16.337
446.16	16.582
446.36	16.404
446.57	17.012
446.77	17.053
446.97	16.701
447.17	17.184
447.37	17.043
447.57	16.627
447.77	16.926
447.98	17.357
448.18	17.158
448.38	17.238
448.58	17.314
448.78	17.460
448.98	17.535
449.18	17.371
449.39	17.638
449.59	17.094
449.79	17.349
449.99	17.669
450.19	17.852
450.39	17.326
450.59	17.491
450.79	17.701
451.00	17.007
451.20	18.410
451.40	17.858
451.60	16.789
451.80	17.142
452.00	17.220
452.20	17.705
452.40	17.005
452.61	17.183
452.81	17.435
453.01	17.198
453.21	16.953
453.41	17.597
453.61	17.370
453.81	17.278
454.01	17.194
454.21	17.758
454.42	17.585
454.62	17.171
454.82	17.361
455.02	17.417
455.22	17.179
455.42	17.318
455.62	16.731
455.82	16.979
456.02	17.045
456.23	17.515
456.43	16.470
456.63	17.172
456.83	16.610
457.03	17.544
457.23	17.398
457.43	17.674
457.63	16.962
457.83	17.757
458.03	16.732
458.23	17.125
458.43	17.054
458.64	17.165
458.84	17.744
459.04	16.801
459.24	16.774
459.44	16.772
459.64	16.769
459.84	16.225
460.04	17.112
460.24	16.960
460.44	17.038
460.64	17.138
460.84	17.345
461.04	17.443
461.24	17.673
461.45	17.649
461.65	17.399
461.85	17.364
462.05	17.621
462.25	17.842
462.45	17.746
462.65	17.901
462.85	17.397
463.05	18.020
463.25	16.922
463.45	17.891
463.65	17.389
463.85	17.895
464.05	17.400
464.25	17.554
464.45	16.959
464.65	17.787
464.85	17.196
465.05	17.190
465.26	17.455
465.46	17.847
465.66	17.123
465.86	17.738
466.06	17.431
466.26	17.343
466.46	16.689
466.66	17.681
466.86	17.349
467.06	17.664
467.26	17.357
467.46	17.621
467.66	17.222
467.86	17.352
468.06	17.247
468.26	17.944
468.46	17.838
468.66	17.220
468.86	17.258
469.06	17.839
469.26	17.803
469.46	17.509
469.66	17.000
469.86	17.703
470.06	17.417
470.26	17.925
470.46	17.648
470.66	18.000
470.86	17.549
