SpectraSuite Data File
++++++++++++++++++++++++++++++++++++
Date: Mon Sep 23 04:28:49 EST 2019
User: sgrac
Dark Spectrum Present: Yes
Reference Spectrum Present: Yes
Number of Sampled Component Spectra: 1
Spectrometers: USB4E01596
Integration Time (usec): 100000 (USB4E01596)
Spectra Averaged: 3 (USB4E01596)
Boxcar Smoothing: 0 (USB4E01596)
Correct for Electrical Dark: No (USB4E01596)
Strobe/Lamp Enabled: Yes (USB4E01596)
Correct for Detector Non-linearity: No (USB4E01596)
Correct for Stray Light: No (USB4E01596)
Number of Pixels in Processed Spectrum: 3648
>>>>>Begin Processed Spectral Data<<<<<
178.44	1600.000
178.66	1600.000
178.87	1600.000
179.09	7000.000
179.30	-6750.000
179.52	-780.645
179.74	-488.679
179.95	781.818
180.17	-708.333
180.38	542.105
180.60	-2690.909
180.82	737.778
181.03	4566.667
181.25	-2666.667
181.46	-1252.000
181.68	1150.000
181.89	-600.000
182.11	-1850.000
182.33	-2000.000
182.54	835.417
182.76	5300.000
182.97	-704.255
183.19	1300.000
183.40	350.413
183.62	446.154
183.84	360.909
184.05	4928.571
184.27	533.333
184.48	546.970
184.70	1688.235
184.91	1533.333
185.13	3530.000
185.34	-15900.000
185.56	1176.923
185.78	348.611
185.99	1105.556
186.21	350.000
186.42	-5975.000
186.64	2300.000
186.85	-7360.000
187.07	650.000
187.28	488.158
187.50	569.091
187.72	437.179
187.93	856.364
188.15	412.500
188.36	478.947
188.58	520.408
188.79	343.269
189.01	466.197
189.22	935.135
189.44	-984.848
189.65	334.746
189.87	-6550.000
190.09	492.063
190.30	840.476
190.52	595.000
190.73	682.609
190.95	-4783.333
191.16	425.000
191.38	458.108
191.59	451.471
191.81	606.452
192.02	2166.667
192.24	918.750
192.45	1141.176
192.67	-1737.500
192.88	633.962
193.10	575.410
193.31	982.500
193.53	273.387
193.74	390.667
193.96	2414.286
194.18	1096.154
194.39	2193.333
194.61	493.151
194.82	1872.727
195.04	432.927
195.25	-454.386
195.47	-518.519
195.68	4900.000
195.90	581.818
196.11	511.940
196.33	30800.000
196.54	765.854
196.76	1964.286
196.97	466.234
197.19	916.216
197.40	2128.571
197.62	343.119
197.83	1141.935
198.05	598.182
198.26	989.655
198.48	476.056
198.69	590.000
198.91	1750.000
199.12	741.860
199.34	676.087
199.55	352.857
199.77	2157.895
199.98	1070.588
200.20	485.526
200.41	569.355
200.63	335.398
200.84	2235.714
201.06	3355.556
201.27	802.439
201.49	518.310
201.70	-986.667
201.91	379.167
202.13	549.153
202.34	601.724
202.56	-1072.000
202.77	755.556
202.99	7016.667
203.20	-4200.000
203.42	2356.250
203.63	434.211
203.85	5200.000
204.06	716.000
204.28	230.303
204.49	611.111
204.71	576.271
204.92	1088.462
205.14	0.000
205.35	1060.000
205.56	-1570.000
205.78	8320.000
205.99	-2057.143
206.21	12350.000
206.42	593.182
206.64	1112.903
206.85	1103.704
207.07	-3155.556
207.28	436.207
207.50	808.696
207.71	1012.903
207.93	378.313
208.14	-1100.000
208.35	507.273
208.57	1232.000
208.78	-3388.889
209.00	398.936
209.21	-17200.000
209.43	-10766.667
209.64	-1793.333
209.86	331.959
210.07	462.791
210.28	440.845
210.50	1324.138
210.71	527.451
210.93	248.529
211.14	457.303
211.36	2000.000
211.57	481.818
211.78	461.429
212.00	431.765
212.21	415.714
212.43	769.231
212.64	431.915
212.86	527.027
213.07	336.697
213.29	-777.778
213.50	331.522
213.71	414.943
213.93	417.073
214.14	1590.909
214.36	522.059
214.57	392.405
214.78	731.111
215.00	308.333
215.21	1013.333
215.43	751.351
215.64	430.159
215.86	442.500
216.07	931.429
216.28	797.368
216.50	332.500
216.71	30500.000
216.93	654.545
217.14	1494.444
217.35	337.879
217.57	354.955
217.78	358.025
218.00	282.828
218.21	952.174
218.42	770.213
218.64	539.286
218.85	630.000
219.07	1655.000
219.28	336.449
219.49	635.294
219.71	415.385
219.92	229.104
220.14	330.928
220.35	482.667
220.56	326.437
220.78	304.808
220.99	237.903
221.21	211.828
221.42	330.864
221.63	209.827
221.85	481.538
222.06	414.286
222.28	486.154
222.49	270.270
222.70	228.346
222.92	736.735
223.13	472.131
223.34	273.050
223.56	384.524
223.77	320.000
223.99	358.947
224.20	521.429
224.41	408.219
224.63	318.182
224.84	247.973
225.05	151.709
225.27	320.000
225.48	320.588
225.69	282.707
225.91	394.595
226.12	280.620
226.34	222.819
226.55	171.942
226.76	261.875
226.98	151.765
227.19	141.016
227.40	289.844
227.62	152.381
227.83	146.352
228.04	116.760
228.26	97.686
228.47	86.119
228.69	77.919
228.90	59.488
229.11	56.899
229.33	52.665
229.54	44.530
229.75	55.603
229.97	49.933
230.18	48.427
230.39	35.398
230.61	40.560
230.82	55.090
231.03	36.641
231.25	45.537
231.46	43.439
231.67	51.900
231.89	61.142
232.10	50.438
232.31	56.610
232.53	60.611
232.74	70.654
232.95	58.258
233.17	62.800
233.38	57.353
233.59	71.614
233.81	71.558
234.02	67.335
234.23	71.277
234.45	78.646
234.66	74.779
234.87	65.164
235.09	57.878
235.30	51.839
235.51	75.623
235.73	61.967
235.94	51.379
236.15	53.001
236.36	61.682
236.58	55.850
236.79	48.230
237.00	56.305
237.22	61.224
237.43	60.857
237.64	51.654
237.86	59.398
238.07	74.570
238.28	58.871
238.50	57.770
238.71	52.338
238.92	51.562
239.13	52.542
239.35	58.476
239.56	55.654
239.77	65.306
239.99	45.275
240.20	56.233
240.41	53.945
240.63	41.914
240.84	44.527
241.05	37.606
241.26	37.561
241.48	32.520
241.69	34.227
241.90	27.208
242.12	23.071
242.33	28.571
242.54	25.873
242.75	25.249
242.97	24.330
243.18	20.189
243.39	19.559
243.61	22.222
243.82	22.736
244.03	22.835
244.24	22.927
244.46	24.116
244.67	24.872
244.88	25.163
245.09	25.334
245.31	25.550
245.52	25.075
245.73	19.407
245.95	42.885
246.16	23.792
246.37	24.663
246.58	24.140
246.80	19.640
247.01	24.888
247.22	18.491
247.43	19.753
247.65	19.873
247.86	18.588
248.07	14.783
248.28	15.806
248.50	18.136
248.71	15.462
248.92	18.463
249.13	13.780
249.35	18.085
249.56	18.362
249.77	17.073
249.98	17.395
250.20	21.964
250.41	22.935
250.62	21.949
250.83	21.803
251.05	24.244
251.26	21.465
251.47	23.036
251.68	24.224
251.90	22.475
252.11	25.122
252.32	25.614
252.53	26.259
252.75	19.302
252.96	24.988
253.17	18.750
253.38	20.416
253.59	21.466
253.81	20.080
254.02	17.473
254.23	18.082
254.44	14.301
254.66	18.525
254.87	20.552
255.08	24.912
255.29	22.990
255.50	20.230
255.72	28.357
255.93	28.176
256.14	37.057
256.35	24.037
256.57	27.538
256.78	26.779
256.99	24.249
257.20	34.860
257.41	26.350
257.63	29.625
257.84	25.677
258.05	22.487
258.26	22.854
258.47	21.938
258.69	22.460
258.90	17.913
259.11	18.402
259.32	17.111
259.53	14.456
259.75	14.843
259.96	13.112
260.17	11.897
260.38	11.737
260.59	13.727
260.81	13.811
261.02	13.745
261.23	13.223
261.44	14.743
261.65	14.853
261.87	13.195
262.08	15.319
262.29	15.565
262.50	15.866
262.71	12.703
262.92	18.361
263.14	15.245
263.35	15.955
263.56	15.673
263.77	18.267
263.98	17.411
264.20	18.742
264.41	15.070
264.62	16.681
264.83	15.226
265.04	20.694
265.25	23.023
265.47	19.147
265.68	21.761
265.89	19.753
266.10	14.005
266.31	23.575
266.52	18.390
266.74	15.434
266.95	18.266
267.16	16.534
267.37	14.960
267.58	16.527
267.79	16.543
268.01	14.315
268.22	17.085
268.43	17.477
268.64	16.656
268.85	14.874
269.06	13.747
269.27	18.825
269.49	14.771
269.70	17.618
269.91	16.509
270.12	16.158
270.33	19.801
270.54	13.690
270.75	13.898
270.97	13.639
271.18	11.357
271.39	12.709
271.60	16.167
271.81	13.795
272.02	13.910
272.23	15.933
272.45	13.882
272.66	10.848
272.87	12.128
273.08	12.706
273.29	14.104
273.50	14.232
273.71	12.554
273.92	12.627
274.14	12.307
274.35	13.782
274.56	14.888
274.77	13.652
274.98	14.744
275.19	15.003
275.40	15.533
275.61	13.393
275.83	15.780
276.04	15.100
276.25	18.700
276.46	15.757
276.67	17.823
276.88	20.855
277.09	14.228
277.30	15.282
277.51	15.995
277.73	13.291
277.94	13.448
278.15	18.281
278.36	15.796
278.57	11.687
278.78	13.949
278.99	17.540
279.20	17.309
279.41	18.379
279.62	15.181
279.84	14.659
280.05	14.375
280.26	12.379
280.47	15.326
280.68	15.282
280.89	15.107
281.10	13.958
281.31	13.281
281.52	16.729
281.73	11.669
281.94	13.135
282.16	15.319
282.37	12.332
282.58	12.741
282.79	17.742
283.00	15.937
283.21	11.537
283.42	13.155
283.63	15.510
283.84	12.184
284.05	14.605
284.26	12.512
284.47	13.203
284.68	12.559
284.89	13.285
285.11	13.575
285.32	11.493
285.53	13.551
285.74	16.597
285.95	14.328
286.16	14.337
286.37	12.535
286.58	12.695
286.79	10.869
287.00	13.027
287.21	11.716
287.42	13.115
287.63	12.799
287.84	12.570
288.05	14.724
288.26	13.529
288.48	15.836
288.69	11.858
288.90	13.230
289.11	17.309
289.32	16.645
289.53	14.620
289.74	9.912
289.95	13.410
290.16	14.829
290.37	11.597
290.58	10.997
290.79	9.820
291.00	10.344
291.21	12.429
291.42	10.309
291.63	13.052
291.84	14.135
292.05	10.713
292.26	13.167
292.47	11.689
292.68	11.501
292.89	12.387
293.10	13.268
293.31	12.834
293.52	8.886
293.73	12.741
293.94	12.295
294.15	9.522
294.36	13.446
294.57	13.942
294.79	12.927
295.00	10.476
295.21	14.699
295.42	13.680
295.63	14.114
295.84	11.077
296.05	10.628
296.26	11.363
296.47	12.266
296.68	11.421
296.89	14.616
297.10	14.488
297.31	12.913
297.52	9.098
297.73	13.286
297.94	12.517
298.15	12.474
298.36	13.189
298.57	13.205
298.78	13.868
298.99	12.325
299.20	12.456
299.41	14.615
299.62	13.838
299.83	11.052
300.04	13.781
300.25	14.714
300.46	15.741
300.67	14.589
300.88	13.799
301.09	11.754
301.30	12.865
301.50	11.109
301.71	15.303
301.92	15.617
302.13	11.966
302.34	11.513
302.55	10.264
302.76	12.155
302.97	12.092
303.18	12.896
303.39	10.665
303.60	12.049
303.81	13.610
304.02	10.729
304.23	12.229
304.44	9.311
304.65	9.455
304.86	11.788
305.07	10.348
305.28	10.707
305.49	13.361
305.70	13.915
305.91	11.810
306.12	11.877
306.33	10.608
306.54	11.390
306.75	13.167
306.96	16.575
307.17	13.549
307.38	9.784
307.58	11.652
307.79	12.622
308.00	11.042
308.21	11.081
308.42	10.117
308.63	10.017
308.84	10.506
309.05	10.739
309.26	7.649
309.47	11.445
309.68	10.960
309.89	11.633
310.10	10.969
310.31	11.404
310.52	9.616
310.73	12.685
310.94	8.153
311.14	9.662
311.35	9.769
311.56	10.052
311.77	9.086
311.98	9.130
312.19	10.474
312.40	8.362
312.61	8.068
312.82	10.538
313.03	8.476
313.24	10.544
313.45	10.402
313.66	9.553
313.86	11.814
314.07	9.911
314.28	11.153
314.49	8.144
314.70	12.559
314.91	10.831
315.12	9.650
315.33	12.338
315.54	8.809
315.75	9.010
315.96	7.918
316.16	8.596
316.37	10.132
316.58	8.913
316.79	10.900
317.00	11.146
317.21	9.731
317.42	10.119
317.63	9.379
317.84	9.798
318.05	10.629
318.25	10.863
318.46	9.977
318.67	10.421
318.88	10.696
319.09	10.996
319.30	9.099
319.51	10.279
319.72	10.916
319.93	9.177
320.13	9.373
320.34	12.154
320.55	11.698
320.76	9.036
320.97	10.693
321.18	11.516
321.39	7.449
321.60	9.918
321.80	13.578
322.01	9.564
322.22	9.447
322.43	9.482
322.64	9.700
322.85	9.486
323.06	11.467
323.27	11.015
323.47	11.307
323.68	11.550
323.89	8.892
324.10	10.101
324.31	9.038
324.52	9.736
324.73	9.903
324.93	8.404
325.14	10.524
325.35	10.218
325.56	8.147
325.77	10.544
325.98	11.061
326.19	10.330
326.39	8.607
326.60	9.322
326.81	8.602
327.02	8.099
327.23	8.441
327.44	12.279
327.64	7.117
327.85	6.300
328.06	10.544
328.27	12.637
328.48	10.995
328.69	8.260
328.90	7.448
329.10	10.621
329.31	9.625
329.52	10.474
329.73	11.246
329.94	8.790
330.15	9.960
330.35	11.873
330.56	10.268
330.77	11.008
330.98	7.501
331.19	10.248
331.39	9.831
331.60	10.673
331.81	7.896
332.02	10.032
332.23	9.125
332.44	8.157
332.64	8.957
332.85	9.183
333.06	9.587
333.27	8.788
333.48	9.817
333.68	7.686
333.89	9.141
334.10	7.979
334.31	10.525
334.52	8.515
334.72	8.868
334.93	8.298
335.14	8.390
335.35	8.823
335.56	10.027
335.76	8.057
335.97	10.230
336.18	7.770
336.39	11.404
336.60	7.605
336.80	8.776
337.01	6.997
337.22	8.376
337.43	9.933
337.64	9.906
337.84	10.212
338.05	8.112
338.26	11.526
338.47	10.796
338.68	7.904
338.88	9.145
339.09	7.436
339.30	8.658
339.51	9.506
339.71	8.774
339.92	7.159
340.13	9.008
340.34	8.716
340.55	9.376
340.75	9.269
340.96	7.352
341.17	9.891
341.38	8.421
341.58	8.714
341.79	8.139
342.00	7.942
342.21	8.119
342.41	7.160
342.62	8.292
342.83	9.409
343.04	6.704
343.24	7.526
343.45	8.347
343.66	7.005
343.87	9.168
344.07	7.297
344.28	8.183
344.49	8.960
344.70	9.953
344.90	7.781
345.11	6.944
345.32	7.095
345.53	7.968
345.73	8.439
345.94	10.770
346.15	10.323
346.36	8.266
346.56	9.652
346.77	9.725
346.98	7.608
347.19	10.088
347.39	9.005
347.60	8.601
347.81	9.400
348.02	9.695
348.22	7.051
348.43	8.911
348.64	8.842
348.84	8.256
349.05	9.445
349.26	11.167
349.47	7.603
349.67	9.634
349.88	10.526
350.09	10.118
350.30	11.309
350.50	10.326
350.71	11.343
350.92	10.554
351.12	10.898
351.33	9.997
351.54	10.628
351.74	11.834
351.95	10.005
352.16	13.112
352.37	12.912
352.57	12.060
352.78	11.802
352.99	13.034
353.19	12.194
353.40	11.741
353.61	16.256
353.82	15.000
354.02	17.246
354.23	14.455
354.44	17.541
354.64	16.434
354.85	15.666
355.06	15.611
355.26	14.462
355.47	15.640
355.68	19.763
355.88	20.302
356.09	19.174
356.30	17.452
356.51	20.658
356.71	18.872
356.92	16.642
357.13	21.374
357.33	22.997
357.54	22.709
357.75	19.631
357.95	23.153
358.16	21.409
358.37	25.317
358.57	22.328
358.78	26.689
358.99	24.592
359.19	25.136
359.40	24.894
359.61	24.816
359.81	26.629
360.02	29.474
360.23	24.590
360.43	27.074
360.64	26.403
360.85	27.964
361.05	25.882
361.26	29.776
361.47	28.215
361.67	29.512
361.88	27.283
362.09	29.352
362.29	27.960
362.50	30.024
362.70	29.200
362.91	30.107
363.12	29.342
363.32	31.497
363.53	30.649
363.74	31.523
363.94	30.231
364.15	32.341
364.36	32.888
364.56	30.795
364.77	33.083
364.98	33.621
365.18	32.706
365.39	33.037
365.59	30.969
365.80	32.389
366.01	33.655
366.21	31.507
366.42	30.250
366.63	33.104
366.83	32.237
367.04	30.314
367.24	33.341
367.45	32.963
367.66	31.526
367.86	33.359
368.07	33.130
368.28	31.712
368.48	32.914
368.69	32.411
368.89	32.850
369.10	33.895
369.31	33.039
369.51	33.773
369.72	35.093
369.92	35.155
370.13	30.827
370.34	32.921
370.54	31.184
370.75	33.792
370.95	31.398
371.16	33.953
371.37	32.890
371.57	33.742
371.78	32.579
371.98	32.900
372.19	33.069
372.40	34.025
372.60	34.982
372.81	33.590
373.01	32.162
373.22	33.814
373.43	33.056
373.63	33.412
373.84	33.852
374.04	33.882
374.25	32.038
374.46	33.964
374.66	34.037
374.87	34.716
375.07	30.125
375.28	31.975
375.48	32.748
375.69	33.830
375.90	31.533
376.10	31.773
376.31	32.331
376.51	32.820
376.72	32.371
376.92	32.169
377.13	33.097
377.34	33.474
377.54	31.931
377.75	32.997
377.95	31.217
378.16	33.339
378.36	32.375
378.57	32.914
378.77	31.928
378.98	33.297
379.19	32.257
379.39	32.516
379.60	32.347
379.80	33.756
380.01	33.719
380.21	32.646
380.42	33.482
380.62	32.244
380.83	31.409
381.04	32.114
381.24	32.698
381.45	32.897
381.65	30.963
381.86	32.121
382.06	32.226
382.27	30.845
382.47	31.609
382.68	32.534
382.88	31.103
383.09	31.094
383.29	31.658
383.50	32.333
383.71	31.560
383.91	31.317
384.12	31.192
384.32	32.220
384.53	30.721
384.73	31.674
384.94	30.423
385.14	31.760
385.35	30.669
385.55	31.817
385.76	30.657
385.96	30.805
386.17	31.994
386.37	32.656
386.58	32.014
386.78	31.730
386.99	31.045
387.19	32.850
387.40	31.253
387.60	32.526
387.81	30.949
388.01	31.080
388.22	32.281
388.42	31.888
388.63	32.021
388.83	31.925
389.04	29.910
389.24	32.353
389.45	31.367
389.65	31.723
389.86	30.431
390.06	30.593
390.27	30.761
390.47	31.906
390.68	29.557
390.88	31.195
391.09	31.873
391.29	31.200
391.50	30.521
391.70	30.336
391.91	30.777
392.11	30.900
392.32	30.136
392.52	30.822
392.73	30.343
392.93	31.657
393.14	30.832
393.34	30.572
393.55	30.676
393.75	30.873
393.95	30.334
394.16	30.912
394.36	30.963
394.57	31.045
394.77	30.416
394.98	30.671
395.18	30.291
395.39	30.780
395.59	30.853
395.80	31.234
396.00	29.660
396.21	31.543
396.41	30.055
396.61	32.164
396.82	30.759
397.02	32.256
397.23	31.473
397.43	30.559
397.64	30.370
397.84	30.655
398.05	29.399
398.25	30.672
398.45	30.569
398.66	29.967
398.86	30.018
399.07	31.037
399.27	29.534
399.48	29.965
399.68	29.351
399.89	29.292
400.09	30.060
400.29	29.404
400.50	29.424
400.70	29.890
400.91	30.591
401.11	30.413
401.32	30.156
401.52	28.987
401.72	29.741
401.93	30.612
402.13	29.383
402.34	30.336
402.54	28.682
402.75	30.341
402.95	28.914
403.15	30.216
403.36	27.705
403.56	29.561
403.77	28.755
403.97	29.089
404.17	28.349
404.38	29.959
404.58	28.226
404.79	29.363
404.99	28.939
405.19	29.845
405.40	28.845
405.60	28.945
405.81	28.735
406.01	28.788
406.21	28.880
406.42	29.483
406.62	28.614
406.83	28.083
407.03	29.080
407.23	29.265
407.44	28.475
407.64	29.714
407.85	29.030
408.05	27.753
408.25	28.526
408.46	29.633
408.66	28.892
408.87	28.915
409.07	28.838
409.27	27.949
409.48	28.130
409.68	28.524
409.88	27.221
410.09	27.847
410.29	28.081
410.50	28.337
410.70	27.726
410.90	28.272
411.11	28.086
411.31	27.394
411.51	28.734
411.72	28.108
411.92	27.883
412.12	28.166
412.33	27.336
412.53	27.799
412.74	27.187
412.94	27.603
413.14	27.901
413.35	28.408
413.55	27.421
413.75	28.470
413.96	27.255
414.16	28.190
414.36	27.545
414.57	27.965
414.77	27.224
414.97	26.943
415.18	27.205
415.38	27.211
415.58	26.584
415.79	27.000
415.99	26.455
416.19	27.331
416.40	26.862
416.60	26.835
416.80	26.896
417.01	27.576
417.21	26.025
417.41	27.281
417.62	25.768
417.82	27.004
418.02	26.104
418.23	26.696
418.43	26.562
418.63	26.743
418.84	26.702
419.04	26.371
419.24	26.527
419.45	26.209
419.65	26.119
419.85	26.803
420.06	26.626
420.26	26.295
420.46	26.099
420.67	26.237
420.87	25.652
421.07	25.386
421.28	26.136
421.48	25.911
421.68	26.165
421.88	25.824
422.09	25.680
422.29	25.744
422.49	26.164
422.70	25.771
422.90	25.994
423.10	26.372
423.31	26.574
423.51	25.597
423.71	26.340
423.91	25.642
424.12	26.413
424.32	26.141
424.52	25.924
424.73	25.253
424.93	25.792
425.13	25.449
425.33	25.260
425.54	25.495
425.74	26.242
425.94	26.000
426.15	26.365
426.35	25.760
426.55	26.489
426.75	26.495
426.96	26.934
427.16	26.192
427.36	26.335
427.57	26.454
427.77	26.350
427.97	26.635
428.17	27.056
428.38	26.530
428.58	25.912
428.78	27.058
428.98	26.439
429.19	26.174
429.39	25.897
429.59	26.402
429.79	26.058
430.00	26.325
430.20	25.581
430.40	26.166
430.60	26.194
430.81	26.062
431.01	25.395
431.21	25.889
431.41	25.605
431.62	26.466
431.82	26.035
432.02	26.133
432.22	26.174
432.43	26.353
432.63	25.823
432.83	25.026
433.03	25.656
433.24	25.829
433.44	25.538
433.64	25.373
433.84	25.740
434.05	25.813
434.25	25.387
434.45	26.004
434.65	25.950
434.85	26.046
435.06	26.412
435.26	26.075
435.46	26.808
435.66	26.701
435.87	27.124
436.07	26.802
436.27	26.650
436.47	26.588
436.67	26.551
436.88	26.609
437.08	25.952
437.28	26.170
437.48	26.665
437.69	25.858
437.89	26.082
438.09	26.383
438.29	26.433
438.49	26.271
438.70	26.205
438.90	25.979
439.10	25.665
439.30	26.131
439.50	25.869
439.71	26.388
439.91	25.488
440.11	25.886
440.31	26.110
440.51	25.695
440.72	26.194
440.92	25.371
441.12	26.202
441.32	26.415
441.52	26.219
441.72	25.722
441.93	26.823
442.13	26.342
442.33	26.441
442.53	26.847
442.73	26.598
442.94	26.372
443.14	26.677
443.34	26.286
443.54	26.312
443.74	27.057
443.94	27.035
444.15	26.229
444.35	27.032
444.55	26.425
444.75	25.895
444.95	25.946
445.15	26.251
445.36	25.529
445.56	26.217
445.76	25.575
445.96	25.603
446.16	25.611
446.36	25.602
446.57	25.784
446.77	25.958
446.97	25.736
447.17	26.286
447.37	25.868
447.57	26.492
447.77	25.891
447.98	26.448
448.18	25.959
448.38	26.555
448.58	26.940
448.78	26.900
448.98	26.688
449.18	26.653
449.39	26.648
449.59	26.867
449.79	27.395
449.99	26.974
450.19	27.087
450.39	27.172
450.59	26.225
450.79	27.044
451.00	26.172
451.20	28.314
451.40	26.572
451.60	26.545
451.80	26.446
452.00	26.541
452.20	26.608
452.40	26.399
452.61	26.773
452.81	26.568
453.01	26.336
453.21	26.582
453.41	26.573
453.61	26.699
453.81	26.968
454.01	26.880
454.21	27.055
454.42	26.698
454.62	26.693
454.82	26.769
455.02	26.451
455.22	26.631
455.42	26.525
455.62	26.301
455.82	26.692
456.02	26.843
456.23	27.039
456.43	26.368
456.63	26.099
456.83	26.961
457.03	26.964
457.23	26.701
457.43	26.940
457.63	26.510
457.83	26.373
458.03	26.501
458.23	26.380
458.43	26.261
458.64	25.875
458.84	26.157
459.04	25.744
459.24	25.471
459.44	25.182
459.64	25.292
459.84	24.823
460.04	25.631
460.24	25.244
460.44	25.678
460.64	25.830
460.84	25.770
461.04	25.800
461.24	26.044
461.45	26.100
461.65	26.408
461.85	26.508
462.05	26.242
462.25	26.313
462.45	27.087
462.65	26.491
462.85	26.334
463.05	26.365
463.25	25.951
463.45	26.615
463.65	26.784
463.85	26.113
464.05	26.484
