SpectraSuite Data File
++++++++++++++++++++++++++++++++++++
Date: Wed Sep 18 04:01:15 EST 2019
User: sgrac
Dark Spectrum Present: Yes
Reference Spectrum Present: Yes
Number of Sampled Component Spectra: 1
Spectrometers: USB4E01596
Integration Time (usec): 100000 (USB4E01596)
Spectra Averaged: 3 (USB4E01596)
Boxcar Smoothing: 0 (USB4E01596)
Correct for Electrical Dark: No (USB4E01596)
Strobe/Lamp Enabled: Yes (USB4E01596)
Correct for Detector Non-linearity: No (USB4E01596)
Correct for Stray Light: No (USB4E01596)
Number of Pixels in Processed Spectrum: 3648
>>>>>Begin Processed Spectral Data<<<<<
178.44	-167.742
178.66	-167.742
178.87	-167.742
179.09	-238.000
179.30	267.391
179.52	642.105
179.74	-1127.778
179.95	-1600.000
180.17	669.767
180.38	-800.000
180.60	437.143
180.82	1506.250
181.03	467.442
181.25	-2221.429
181.46	-487.500
181.68	-497.674
181.89	585.714
182.11	557.500
182.33	539.216
182.54	559.649
182.76	1330.435
182.97	1692.857
183.19	377.174
183.40	279.545
183.62	594.231
183.84	398.387
184.05	993.939
184.27	427.869
184.48	3312.500
184.70	644.444
184.91	684.783
185.13	-668.750
185.34	-355.000
185.56	-663.636
185.78	1177.778
185.99	532.787
186.21	534.146
186.42	-2250.000
186.64	345.455
186.85	1862.500
187.07	452.381
187.28	611.905
187.50	-1182.353
187.72	440.000
187.93	401.205
188.15	513.235
188.36	-1805.882
188.58	316.883
188.79	-13100.000
189.01	190.476
189.22	353.247
189.44	1158.333
189.65	365.169
189.87	411.842
190.09	367.021
190.30	823.333
190.52	1481.250
190.73	308.434
190.95	922.727
191.16	340.299
191.38	-24300.000
191.59	660.870
191.81	484.286
192.02	-602.564
192.24	459.677
192.45	351.111
192.67	354.545
192.88	425.000
193.10	688.636
193.31	362.500
193.53	417.742
193.74	812.121
193.96	433.898
194.18	-1134.783
194.39	549.020
194.61	855.172
194.82	1180.769
195.04	371.111
195.25	388.525
195.47	-5800.000
195.68	419.718
195.90	245.055
196.11	585.417
196.33	1958.824
196.54	634.884
196.76	-812.000
196.97	263.000
197.19	1110.000
197.40	267.669
197.62	-669.697
197.83	544.231
198.05	252.349
198.26	-940.000
198.48	563.889
198.69	275.229
198.91	369.565
199.12	-2300.000
199.34	1044.000
199.55	21200.000
199.77	444.737
199.98	5166.667
200.20	582.353
200.41	461.972
200.63	414.815
200.84	1300.000
201.06	506.452
201.27	355.556
201.49	506.250
201.70	463.934
201.91	618.182
202.13	1550.000
202.34	-648.571
202.56	456.667
202.77	-231.395
202.99	373.171
203.20	685.106
203.42	444.286
203.63	234.862
203.85	-1034.483
204.06	718.182
204.28	1866.667
204.49	679.070
204.71	249.580
204.92	819.231
205.14	1231.579
205.35	6175.000
205.56	390.141
205.78	356.790
205.99	238.931
206.21	261.616
206.42	600.000
206.64	726.471
206.85	336.667
207.07	674.286
207.28	336.364
207.50	1200.000
207.71	523.256
207.93	502.083
208.14	651.163
208.35	406.780
208.57	534.000
208.78	336.170
209.00	302.151
209.21	249.296
209.43	376.389
209.64	934.615
209.86	1781.818
210.07	367.089
210.28	310.843
210.50	392.754
210.71	353.030
210.93	503.636
211.14	610.000
211.36	814.286
211.57	210.833
211.78	1042.308
212.00	691.892
212.21	1966.667
212.43	2276.923
212.64	809.375
212.86	277.273
213.07	438.462
213.29	319.388
213.50	431.667
213.71	298.750
213.93	351.685
214.14	725.000
214.36	687.805
214.57	376.190
214.78	7725.000
215.00	320.732
215.21	568.889
215.43	-4960.000
215.64	350.000
215.86	394.118
216.07	315.068
216.28	500.000
216.50	566.000
216.71	1146.667
216.93	-21500.000
217.14	1484.211
217.35	-335.593
217.57	323.864
217.78	696.552
218.00	278.095
218.21	297.059
218.42	-5925.000
218.64	750.000
218.85	338.235
219.07	400.000
219.28	608.333
219.49	-10700.000
219.71	405.970
219.92	573.684
220.14	-20400.000
220.35	453.425
220.56	456.522
220.78	258.537
220.99	-364.444
221.21	344.578
221.42	200.658
221.63	1230.769
221.85	-640.000
222.06	249.495
222.28	-542.857
222.49	435.088
222.70	260.345
222.92	560.526
223.13	168.493
223.34	2250.000
223.56	200.000
223.77	297.531
223.99	264.646
224.20	170.238
224.41	247.273
224.63	181.818
224.84	239.516
225.05	259.016
225.27	514.545
225.48	278.049
225.69	421.875
225.91	393.846
226.12	342.667
226.34	332.353
226.55	194.340
226.76	189.922
226.98	283.333
227.19	167.857
227.40	186.620
227.62	142.564
227.83	120.476
228.04	148.108
228.26	158.108
228.47	100.481
228.69	63.934
228.90	70.845
229.11	55.337
229.33	58.652
229.54	50.965
229.75	39.677
229.97	25.381
230.18	43.581
230.39	41.512
230.61	26.871
230.82	45.000
231.03	27.489
231.25	38.663
231.46	49.785
231.67	37.715
231.89	39.693
232.10	54.939
232.31	51.132
232.53	70.222
232.74	55.422
232.95	62.376
233.17	54.084
233.38	65.957
233.59	54.967
233.81	72.921
234.02	67.723
234.23	61.198
234.45	64.525
234.66	50.743
234.87	71.461
235.09	63.636
235.30	63.568
235.51	58.396
235.73	44.418
235.94	62.395
236.15	46.269
236.36	50.112
236.58	49.242
236.79	42.351
237.00	50.279
237.22	42.541
237.43	56.604
237.64	34.879
237.86	58.740
238.07	73.942
238.28	54.292
238.50	59.305
238.71	41.731
238.92	40.774
239.13	51.282
239.35	51.020
239.56	59.236
239.77	55.078
239.99	58.228
240.20	61.875
240.41	30.550
240.63	54.228
240.84	47.195
241.05	35.852
241.26	39.051
241.48	39.224
241.69	33.871
241.90	29.084
242.12	31.568
242.33	29.395
242.54	24.692
242.75	18.408
242.97	30.487
243.18	16.921
243.39	13.269
243.61	16.805
243.82	23.407
244.03	23.199
244.24	17.560
244.46	15.474
244.67	14.310
244.88	19.813
245.09	20.053
245.31	19.051
245.52	13.573
245.73	23.768
245.95	39.225
246.16	27.090
246.37	23.048
246.58	21.528
246.80	27.133
247.01	21.654
247.22	18.572
247.43	15.827
247.65	16.736
247.86	13.794
248.07	12.895
248.28	11.175
248.50	10.601
248.71	15.433
248.92	11.279
249.13	11.042
249.35	12.418
249.56	13.031
249.77	11.088
249.98	13.018
250.20	16.350
250.41	18.809
250.62	16.894
250.83	19.042
251.05	22.531
251.26	21.700
251.47	19.764
251.68	20.301
251.90	21.771
252.11	22.498
252.32	20.485
252.53	25.690
252.75	17.954
252.96	24.051
253.17	21.385
253.38	17.121
253.59	14.586
253.81	17.454
254.02	17.873
254.23	18.826
254.44	18.968
254.66	19.515
254.87	19.298
255.08	16.105
255.29	29.010
255.50	20.458
255.72	21.277
255.93	31.388
256.14	25.828
256.35	24.255
256.57	21.699
256.78	31.342
256.99	26.529
257.20	19.420
257.41	18.670
257.63	17.940
257.84	27.809
258.05	23.937
258.26	18.542
258.47	23.047
258.69	27.267
258.90	15.374
259.11	17.335
259.32	15.514
259.53	16.139
259.75	9.249
259.96	12.694
260.17	14.185
260.38	12.708
260.59	8.264
260.81	11.443
261.02	10.326
261.23	9.476
261.44	11.132
261.65	8.065
261.87	9.572
262.08	10.815
262.29	12.387
262.50	7.921
262.71	8.341
262.92	10.282
263.14	11.638
263.35	10.802
263.56	11.392
263.77	12.367
263.98	11.659
264.20	20.645
264.41	17.405
264.62	12.835
264.83	11.317
265.04	21.040
265.25	14.830
265.47	23.054
265.68	16.647
265.89	15.862
266.10	12.432
266.31	19.045
266.52	17.485
266.74	15.747
266.95	13.859
267.16	16.012
267.37	16.378
267.58	9.688
267.79	13.483
268.01	11.947
268.22	9.860
268.43	16.106
268.64	13.736
268.85	13.470
269.06	11.080
269.27	12.651
269.49	9.704
269.70	12.527
269.91	14.778
270.12	13.373
270.33	16.347
270.54	12.527
270.75	11.430
270.97	13.208
271.18	11.867
271.39	12.239
271.60	12.110
271.81	11.483
272.02	11.410
272.23	11.474
272.45	9.297
272.66	11.972
272.87	10.916
273.08	9.904
273.29	12.741
273.50	7.904
273.71	8.676
273.92	10.623
274.14	7.066
274.35	11.248
274.56	13.863
274.77	9.880
274.98	11.466
275.19	11.262
275.40	12.057
275.61	10.835
275.83	10.043
276.04	9.746
276.25	14.286
276.46	13.179
276.67	12.846
276.88	14.971
277.09	11.160
277.30	16.024
277.51	10.343
277.73	14.154
277.94	13.071
278.15	14.367
278.36	12.782
278.57	12.258
278.78	11.876
278.99	12.632
279.20	13.691
279.41	13.469
279.62	12.219
279.84	12.724
280.05	8.262
280.26	13.325
280.47	12.166
280.68	9.000
280.89	12.645
281.10	11.299
281.31	14.024
281.52	13.756
281.73	7.643
281.94	7.381
282.16	12.555
282.37	11.713
282.58	11.216
282.79	10.931
283.00	11.803
283.21	8.705
283.42	9.348
283.63	11.189
283.84	9.235
284.05	8.989
284.26	8.587
284.47	11.045
284.68	8.210
284.89	9.003
285.11	8.281
285.32	9.603
285.53	9.544
285.74	11.652
285.95	10.019
286.16	10.524
286.37	6.649
286.58	8.519
286.79	6.975
287.00	6.504
287.21	8.139
287.42	8.511
287.63	8.107
287.84	8.371
288.05	9.126
288.26	9.084
288.48	10.553
288.69	8.378
288.90	10.392
289.11	11.906
289.32	11.470
289.53	9.937
289.74	8.055
289.95	9.648
290.16	10.625
290.37	9.069
290.58	7.053
290.79	6.633
291.00	8.700
291.21	9.720
291.42	8.512
291.63	8.410
291.84	8.724
292.05	6.148
292.26	8.669
292.47	8.434
292.68	5.631
292.89	8.499
293.10	8.866
293.31	10.057
293.52	7.215
293.73	6.886
293.94	11.526
294.15	8.595
294.36	10.542
294.57	11.264
294.79	8.477
295.00	8.309
295.21	10.296
295.42	9.946
295.63	11.021
295.84	6.389
296.05	9.096
296.26	9.668
296.47	9.464
296.68	6.313
296.89	10.410
297.10	8.085
297.31	7.905
297.52	7.628
297.73	6.431
297.94	6.489
298.15	6.084
298.36	5.544
298.57	5.913
298.78	7.963
298.99	6.515
299.20	7.510
299.41	6.880
299.62	5.824
299.83	6.540
300.04	7.150
300.25	7.429
300.46	7.308
300.67	9.884
300.88	7.309
301.09	6.054
301.30	7.798
301.50	7.391
301.71	9.485
301.92	9.160
302.13	5.818
302.34	7.761
302.55	7.523
302.76	6.968
302.97	7.688
303.18	5.652
303.39	8.700
303.60	7.242
303.81	8.373
304.02	6.332
304.23	9.596
304.44	7.875
304.65	7.291
304.86	9.098
305.07	6.870
305.28	7.989
305.49	7.803
305.70	9.431
305.91	8.380
306.12	6.590
306.33	6.202
306.54	8.300
306.75	8.869
306.96	10.609
307.17	6.268
307.38	7.516
307.58	6.712
307.79	7.741
308.00	11.234
308.21	7.106
308.42	7.834
308.63	8.518
308.84	9.659
309.05	7.634
309.26	4.728
309.47	8.436
309.68	6.615
309.89	9.498
310.10	9.292
310.31	7.604
310.52	7.616
310.73	10.047
310.94	6.441
311.14	6.610
311.35	5.817
311.56	8.457
311.77	6.590
311.98	7.153
312.19	6.373
312.40	5.977
312.61	6.702
312.82	7.587
313.03	7.974
313.24	6.853
313.45	6.755
313.66	6.950
313.86	7.538
314.07	6.337
314.28	6.570
314.49	5.885
314.70	7.913
314.91	7.520
315.12	7.459
315.33	10.124
315.54	8.110
315.75	6.976
315.96	6.779
316.16	9.876
316.37	11.147
316.58	9.671
316.79	8.526
317.00	9.304
317.21	8.534
317.42	9.741
317.63	6.663
317.84	7.472
318.05	6.397
318.25	8.506
318.46	9.404
318.67	7.437
318.88	9.523
319.09	8.851
319.30	9.653
319.51	7.092
319.72	6.644
319.93	5.402
320.13	8.860
320.34	10.471
320.55	6.586
320.76	9.954
320.97	10.964
321.18	10.972
321.39	7.465
321.60	8.555
321.80	10.060
322.01	9.727
322.22	10.404
322.43	8.307
322.64	10.605
322.85	8.021
323.06	6.236
323.27	8.823
323.47	9.946
323.68	10.350
323.89	9.223
324.10	6.998
324.31	7.304
324.52	8.485
324.73	7.883
324.93	7.141
325.14	7.188
325.35	8.347
325.56	8.009
325.77	9.736
325.98	7.049
326.19	8.090
326.39	7.084
326.60	8.994
326.81	5.892
327.02	5.755
327.23	7.533
327.44	10.884
327.64	6.337
327.85	6.316
328.06	8.011
328.27	11.212
328.48	9.489
328.69	4.022
328.90	6.779
329.10	6.785
329.31	8.047
329.52	9.952
329.73	9.257
329.94	8.549
330.15	9.319
330.35	11.439
330.56	9.849
330.77	9.886
330.98	8.895
331.19	8.691
331.39	8.987
331.60	7.941
331.81	6.072
332.02	10.876
332.23	8.562
332.44	9.007
332.64	9.013
332.85	9.967
333.06	9.697
333.27	6.983
333.48	8.493
333.68	9.060
333.89	9.037
334.10	8.433
334.31	9.737
334.52	9.359
334.72	9.192
334.93	7.291
335.14	6.347
335.35	7.346
335.56	9.934
335.76	7.178
335.97	9.444
336.18	8.051
336.39	10.483
336.60	8.984
336.80	8.348
337.01	8.303
337.22	8.186
337.43	10.167
337.64	10.038
337.84	8.746
338.05	8.907
338.26	9.936
338.47	11.840
338.68	8.293
338.88	10.751
339.09	9.552
339.30	8.675
339.51	8.879
339.71	11.956
339.92	8.495
340.13	10.694
340.34	9.545
340.55	8.066
340.75	9.258
340.96	10.184
341.17	10.181
341.38	9.328
341.58	11.370
341.79	8.947
342.00	8.368
342.21	9.646
342.41	9.216
342.62	11.678
342.83	10.418
343.04	9.047
343.24	11.642
343.45	13.112
343.66	12.259
343.87	11.349
344.07	10.550
344.28	14.578
344.49	13.779
344.70	15.103
344.90	11.211
345.11	10.874
345.32	14.791
345.53	13.102
345.73	14.388
345.94	17.374
346.15	18.187
346.36	14.304
346.56	14.992
346.77	18.468
346.98	16.270
347.19	17.221
347.39	18.623
347.60	17.790
347.81	19.633
348.02	19.393
348.22	16.364
348.43	18.826
348.64	16.582
348.84	20.685
349.05	20.222
349.26	23.816
349.47	19.828
349.67	20.969
349.88	24.434
350.09	24.453
350.30	25.761
350.50	26.569
350.71	26.561
350.92	25.763
351.12	26.925
351.33	26.808
351.54	25.814
351.74	28.954
351.95	26.132
352.16	31.246
352.37	30.131
352.57	32.612
352.78	30.216
352.99	32.992
353.19	29.779
353.40	35.394
353.61	34.409
353.82	35.899
354.02	35.881
354.23	35.579
354.44	38.466
354.64	38.388
354.85	38.027
355.06	38.488
355.26	35.353
355.47	39.690
355.68	43.453
355.88	41.628
356.09	39.411
356.30	39.870
356.51	42.179
356.71	43.374
356.92	41.281
357.13	43.345
357.33	44.571
357.54	43.847
357.75	41.816
357.95	44.358
358.16	43.611
358.37	46.466
358.57	42.826
358.78	47.706
358.99	45.511
359.19	44.926
359.40	46.381
359.61	47.905
359.81	46.652
360.02	48.462
360.23	48.360
360.43	46.805
360.64	46.736
360.85	47.559
361.05	47.005
361.26	49.153
361.47	46.861
361.67	48.988
361.88	45.528
362.09	47.500
362.29	46.575
362.50	46.580
362.70	46.556
362.91	49.268
363.12	47.942
363.32	47.958
363.53	48.785
363.74	49.286
363.94	48.514
364.15	50.631
364.36	48.794
364.56	49.981
364.77	49.642
364.98	51.645
365.18	48.585
365.39	49.528
365.59	49.754
365.80	50.982
366.01	48.802
366.21	49.888
366.42	49.654
366.63	49.528
366.83	48.634
367.04	49.182
367.24	49.775
367.45	50.509
367.66	47.397
367.86	47.873
368.07	49.482
368.28	50.057
368.48	49.421
368.69	48.060
368.89	49.297
369.10	49.501
369.31	48.810
369.51	50.943
369.72	47.765
369.92	49.635
370.13	47.345
370.34	50.445
370.54	46.329
370.75	50.369
370.95	47.181
371.16	48.341
371.37	48.542
371.57	48.616
371.78	46.941
371.98	48.622
372.19	49.202
372.40	47.865
372.60	47.080
372.81	48.056
373.01	46.336
373.22	47.024
373.43	48.964
373.63	49.316
373.84	49.191
374.04	48.870
374.25	47.001
374.46	48.339
374.66	49.560
374.87	49.071
375.07	45.571
375.28	48.327
375.48	47.346
375.69	48.890
375.90	44.568
376.10	47.517
376.31	47.128
376.51	48.000
376.72	45.169
376.92	46.659
377.13	47.337
377.34	46.854
377.54	47.118
377.75	47.348
377.95	45.289
378.16	48.173
378.36	46.776
378.57	47.424
378.77	46.087
378.98	46.192
379.19	47.684
379.39	48.103
379.60	47.251
379.80	46.653
380.01	45.619
380.21	46.528
380.42	45.689
380.62	46.703
380.83	46.519
381.04	46.190
381.24	46.006
381.45	45.673
381.65	45.964
381.86	46.238
382.06	46.269
382.27	44.702
382.47	44.550
382.68	45.607
382.88	44.995
383.09	44.695
383.29	45.704
383.50	46.224
383.71	45.065
383.91	45.199
384.12	43.893
384.32	46.083
384.53	44.324
384.73	45.370
384.94	43.175
385.14	43.724
385.35	42.490
385.55	44.525
385.76	45.204
385.96	45.024
386.17	45.699
386.37	44.481
386.58	44.732
386.78	45.238
386.99	44.201
387.19	44.825
387.40	44.229
387.60	44.124
387.81	43.697
388.01	45.548
388.22	44.517
388.42	45.059
388.63	43.880
388.83	44.496
389.04	43.852
389.24	45.670
389.45	44.525
389.65	42.714
389.86	43.554
390.06	42.614
390.27	43.288
390.47	45.136
390.68	44.082
390.88	43.512
391.09	44.967
391.29	43.543
391.50	43.787
391.70	44.152
391.91	42.920
392.11	42.814
392.32	44.096
392.52	42.959
392.73	42.138
392.93	43.015
393.14	41.978
393.34	43.442
393.55	42.663
393.75	43.560
393.95	43.123
394.16	43.520
394.36	43.136
394.57	43.339
394.77	43.335
394.98	43.079
395.18	42.376
395.39	41.812
395.59	42.608
395.80	43.069
396.00	42.791
396.21	42.699
396.41	41.785
396.61	42.405
396.82	43.503
397.02	44.315
397.23	42.912
397.43	42.627
397.64	41.105
397.84	43.700
398.05	41.386
398.25	42.886
398.45	41.129
398.66	42.125
398.86	41.374
399.07	42.084
399.27	41.975
399.48	41.552
399.68	40.664
399.89	42.132
400.09	42.933
400.29	42.247
400.50	40.301
400.70	41.457
400.91	40.516
401.11	41.203
401.32	42.114
401.52	41.283
401.72	40.816
401.93	41.160
402.13	40.338
402.34	41.738
402.54	40.140
402.75	42.494
402.95	40.193
403.15	40.978
403.36	40.968
403.56	40.876
403.77	39.215
403.97	40.582
404.17	38.508
404.38	39.500
404.58	38.483
404.79	39.641
404.99	40.951
405.19	38.892
405.40	38.823
405.60	39.085
405.81	38.899
406.01	39.710
406.21	39.685
406.42	39.338
406.62	38.718
406.83	39.462
407.03	38.735
407.23	38.719
407.44	39.493
407.64	39.285
407.85	37.956
408.05	38.208
408.25	39.820
408.46	40.002
408.66	38.424
408.87	38.722
409.07	39.009
409.27	38.646
409.48	38.542
409.68	39.524
409.88	38.016
410.09	38.953
410.29	38.619
410.50	38.133
410.70	36.778
410.90	38.452
411.11	37.670
411.31	38.237
411.51	38.310
411.72	37.786
411.92	37.136
412.12	37.759
412.33	36.941
412.53	37.613
412.74	37.741
412.94	38.340
413.14	37.632
413.35	37.266
413.55	37.170
413.75	36.666
413.96	36.461
414.16	36.635
414.36	37.177
414.57	37.202
414.77	36.650
414.97	37.636
415.18	36.482
415.38	36.511
415.58	35.969
415.79	37.185
415.99	35.379
416.19	36.036
416.40	35.170
416.60	36.112
416.80	34.978
417.01	36.425
417.21	35.911
417.41	35.979
417.62	35.890
417.82	34.771
418.02	34.890
418.23	35.571
418.43	35.032
418.63	35.207
418.84	35.189
419.04	34.447
419.24	34.468
419.45	34.482
419.65	34.424
419.85	34.411
420.06	33.952
420.26	34.867
420.46	33.710
420.67	33.884
420.87	33.581
421.07	34.482
421.28	33.714
421.48	34.058
421.68	34.019
421.88	34.127
422.09	34.683
422.29	33.537
422.49	33.993
422.70	33.749
422.90	34.046
423.10	33.904
423.31	34.053
423.51	34.335
423.71	33.776
423.91	33.643
424.12	33.765
424.32	34.123
424.52	33.340
424.73	33.045
424.93	33.514
425.13	33.350
425.33	33.568
425.54	33.290
425.74	33.282
425.94	33.581
426.15	34.211
426.35	33.490
426.55	34.233
426.75	34.014
426.96	33.674
427.16	33.833
427.36	34.329
427.57	33.897
427.77	33.832
427.97	34.390
428.17	33.982
428.38	33.640
428.58	33.347
428.78	34.464
428.98	33.464
429.19	33.938
429.39	33.773
429.59	34.210
429.79	33.831
430.00	33.050
430.20	33.096
430.40	33.545
430.60	33.583
430.81	33.285
431.01	32.302
431.21	33.471
431.41	32.486
431.62	33.264
431.82	32.889
432.02	34.075
432.22	33.229
432.43	32.598
432.63	32.914
432.83	32.817
433.03	32.385
433.24	33.048
433.44	31.985
433.64	32.676
433.84	32.487
434.05	32.495
434.25	32.160
434.45	32.285
434.65	32.790
434.85	32.940
435.06	32.467
435.26	32.557
435.46	32.579
435.66	32.611
435.87	33.152
436.07	33.247
436.27	33.026
436.47	33.471
436.67	33.452
436.88	33.399
437.08	33.130
437.28	34.036
437.48	32.933
437.69	32.371
437.89	33.438
438.09	33.055
438.29	32.709
438.49	32.752
438.70	33.124
438.90	32.491
439.10	32.031
439.30	32.175
439.50	32.262
439.71	32.123
439.91	31.858
440.11	32.121
440.31	31.883
440.51	32.147
440.72	32.347
440.92	32.142
441.12	31.764
441.32	32.079
441.52	32.512
441.72	31.678
441.93	32.503
442.13	32.493
442.33	32.429
442.53	33.045
442.73	33.380
442.94	32.764
443.14	33.056
443.34	32.439
443.54	32.685
443.74	32.885
443.94	33.029
444.15	32.439
444.35	32.421
444.55	32.631
444.75	32.872
444.95	32.883
445.15	32.249
445.36	32.476
445.56	31.908
445.76	32.013
445.96	31.720
446.16	32.269
446.36	31.877
446.57	31.703
446.77	31.379
446.97	31.318
447.17	32.186
447.37	31.439
447.57	31.937
447.77	31.420
447.98	31.551
448.18	32.401
448.38	32.650
448.58	32.198
448.78	32.273
448.98	32.492
449.18	32.328
449.39	32.229
449.59	32.241
449.79	32.796
449.99	32.948
450.19	32.653
450.39	33.041
450.59	32.837
450.79	33.060
451.00	32.173
451.20	32.983
451.40	32.908
451.60	32.938
451.80	32.672
452.00	32.913
452.20	33.200
452.40	32.700
452.61	32.035
452.81	32.610
453.01	31.943
453.21	32.401
453.41	31.931
453.61	31.630
453.81	32.308
454.01	31.736
454.21	32.350
454.42	32.504
454.62	32.381
454.82	31.842
455.02	31.807
455.22	32.303
455.42	33.125
455.62	32.309
455.82	32.177
456.02	32.169
456.23	32.354
456.43	32.392
456.63	32.574
456.83	32.442
457.03	32.588
457.23	32.611
457.43	32.681
457.63	31.869
457.83	32.365
458.03	31.611
458.23	32.069
458.43	31.381
458.64	31.895
458.84	32.073
459.04	31.316
459.24	31.211
459.44	31.265
459.64	30.590
459.84	30.661
460.04	30.644
460.24	30.259
460.44	30.211
460.64	31.124
460.84	30.831
461.04	31.089
461.24	30.670
461.45	31.243
461.65	31.108
461.85	31.128
462.05	31.800
462.25	31.695
462.45	31.855
462.65	31.666
462.85	31.926
463.05	32.280
463.25	31.767
463.45	31.060
463.65	32.288
463.85	31.126
464.05	31.951
464.25	31.888
464.45	32.044
464.65	31.782
464.85	31.513
465.05	31.172
465.26	31.256
465.46	31.383
465.66	31.253
465.86	31.517
466.06	32.014
