SpectraSuite Data File
++++++++++++++++++++++++++++++++++++
Date: Mon Sep 23 04:50:09 EST 2019
User: sgrac
Dark Spectrum Present: Yes
Reference Spectrum Present: Yes
Number of Sampled Component Spectra: 1
Spectrometers: USB4E01596
Integration Time (usec): 100000 (USB4E01596)
Spectra Averaged: 3 (USB4E01596)
Boxcar Smoothing: 0 (USB4E01596)
Correct for Electrical Dark: No (USB4E01596)
Strobe/Lamp Enabled: Yes (USB4E01596)
Correct for Detector Non-linearity: No (USB4E01596)
Correct for Stray Light: No (USB4E01596)
Number of Pixels in Processed Spectrum: 3648
>>>>>Begin Processed Spectral Data<<<<<
178.44	1869.231
178.66	1869.231
178.87	1869.231
179.09	10133.333
179.30	-5825.000
179.52	-964.516
179.74	-707.547
179.95	702.273
180.17	-680.556
180.38	529.825
180.60	-2836.364
180.82	908.889
181.03	4133.333
181.25	-2791.667
181.46	-1256.000
181.68	1516.667
181.89	-690.909
182.11	-2356.250
182.33	-2393.750
182.54	775.000
182.76	4566.667
182.97	-685.106
183.19	1720.000
183.40	267.769
183.62	421.795
183.84	356.364
184.05	4657.143
184.27	513.636
184.48	566.667
184.70	2047.059
184.91	1471.429
185.13	3240.000
185.34	-15800.000
185.56	1276.923
185.78	369.444
185.99	1022.222
186.21	386.364
186.42	-7400.000
186.64	2760.000
186.85	-7100.000
187.07	658.000
187.28	421.053
187.50	600.000
187.72	361.538
187.93	869.091
188.15	376.042
188.36	556.579
188.58	606.122
188.79	323.077
189.01	466.197
189.22	908.108
189.44	-1000.000
189.65	329.661
189.87	-7850.000
190.09	633.333
190.30	1007.143
190.52	608.333
190.73	882.609
190.95	-5133.333
191.16	441.667
191.38	501.351
191.59	510.294
191.81	553.226
192.02	2280.000
192.24	953.125
192.45	1026.471
192.67	-1612.500
192.88	479.245
193.10	545.902
193.31	1002.500
193.53	295.161
193.74	397.333
193.96	2135.714
194.18	1153.846
194.39	2380.000
194.61	473.973
194.82	1727.273
195.04	385.366
195.25	-514.035
195.47	-557.407
195.68	4416.667
195.90	769.091
196.11	486.567
196.33	31100.000
196.54	1031.707
196.76	2150.000
196.97	548.052
197.19	856.757
197.40	2900.000
197.62	317.431
197.83	1064.516
198.05	763.636
198.26	1006.897
198.48	478.873
198.69	565.000
198.91	1566.667
199.12	830.233
199.34	817.391
199.55	517.143
199.77	2210.526
199.98	926.471
200.20	477.632
200.41	530.645
200.63	330.973
200.84	2300.000
201.06	3033.333
201.27	817.073
201.49	569.014
201.70	-1046.667
201.91	490.278
202.13	535.593
202.34	662.069
202.56	-1180.000
202.77	586.667
202.99	6083.333
203.20	-4337.500
203.42	2762.500
203.63	465.789
203.85	5966.667
204.06	600.000
204.28	347.475
204.49	651.852
204.71	494.915
204.92	1276.923
205.14	0.000
205.35	1163.333
205.56	-1780.000
205.78	7500.000
205.99	-2235.714
206.21	16850.000
206.42	738.636
206.64	1209.677
206.85	937.037
207.07	-3144.444
207.28	503.448
207.50	863.043
207.71	1019.355
207.93	353.012
208.14	-1062.963
208.35	541.818
208.57	1408.000
208.78	-3377.778
209.00	381.915
209.21	-12400.000
209.43	-10400.000
209.64	-1873.333
209.86	365.979
210.07	446.512
210.28	566.197
210.50	1079.310
210.71	600.000
210.93	250.735
211.14	459.551
211.36	2193.750
211.57	480.303
211.78	568.571
212.00	501.176
212.21	561.429
212.43	933.333
212.64	438.298
212.86	458.108
213.07	388.991
213.29	-813.889
213.50	419.565
213.71	411.494
213.93	454.878
214.14	2354.545
214.36	538.235
214.57	401.266
214.78	860.000
215.00	369.792
215.21	1116.667
215.43	921.622
215.64	468.254
215.86	406.250
216.07	851.429
216.28	792.105
216.50	330.833
216.71	28500.000
216.93	581.818
217.14	1411.111
217.35	304.545
217.57	349.550
217.78	417.284
218.00	380.808
218.21	1421.739
218.42	757.447
218.64	619.643
218.85	604.000
219.07	1325.000
219.28	383.178
219.49	619.608
219.71	466.154
219.92	235.821
220.14	348.454
220.35	464.000
220.56	397.701
220.78	409.615
220.99	300.806
221.21	352.688
221.42	391.358
221.63	193.064
221.85	609.231
222.06	421.429
222.28	423.077
222.49	345.045
222.70	274.803
222.92	667.347
223.13	477.049
223.34	246.099
223.56	350.000
223.77	346.250
223.99	404.211
224.20	378.571
224.41	373.973
224.63	448.864
224.84	260.135
225.05	156.410
225.27	294.783
225.48	321.569
225.69	236.842
225.91	409.459
226.12	272.093
226.34	240.268
226.55	153.957
226.76	230.000
226.98	150.588
227.19	158.203
227.40	286.719
227.62	192.593
227.83	186.695
228.04	128.212
228.26	91.517
228.47	101.983
228.69	80.457
228.90	69.936
229.11	81.942
229.33	64.577
229.54	48.005
229.75	65.390
229.97	46.299
230.18	61.348
230.39	39.712
230.61	49.793
230.82	67.305
231.03	45.583
231.25	57.827
231.46	55.882
231.67	69.332
231.89	70.195
232.10	58.448
232.31	69.207
232.53	64.007
232.74	86.542
232.95	75.318
233.17	76.600
233.38	67.227
233.59	77.922
233.81	86.594
234.02	72.745
234.23	59.397
234.45	98.090
234.66	84.292
234.87	80.943
235.09	67.685
235.30	50.613
235.51	69.395
235.73	71.058
235.94	60.087
236.15	70.717
236.36	66.355
236.58	55.850
236.79	56.047
237.00	58.944
237.22	63.605
237.43	58.493
237.64	56.850
237.86	64.850
238.07	72.852
238.28	66.452
238.50	59.459
238.71	61.871
238.92	53.594
239.13	64.576
239.35	60.653
239.56	53.357
239.77	82.575
239.99	51.622
240.20	73.546
240.41	63.989
240.63	42.588
240.84	53.731
241.05	43.047
241.26	43.658
241.48	45.833
241.69	36.819
241.90	32.140
242.12	34.253
242.33	44.188
242.54	38.098
242.75	31.986
242.97	42.302
243.18	28.714
243.39	28.788
243.61	36.100
243.82	40.476
244.03	39.480
244.24	35.787
244.46	36.197
244.67	41.453
244.88	37.043
245.09	40.699
245.31	41.831
245.52	37.071
245.73	36.155
245.95	56.855
246.16	34.777
246.37	30.580
246.58	30.744
246.80	29.885
247.01	38.610
247.22	29.826
247.43	35.843
247.65	35.816
247.86	32.291
248.07	28.709
248.28	35.894
248.50	35.985
248.71	34.201
248.92	39.141
249.13	37.389
249.35	40.111
249.56	38.018
249.77	39.551
249.98	34.912
250.20	40.273
250.41	39.570
250.62	41.179
250.83	32.526
251.05	37.004
251.26	28.483
251.47	30.839
251.68	34.500
251.90	33.130
252.11	31.813
252.32	31.622
252.53	35.959
252.75	28.439
252.96	32.871
253.17	31.297
253.38	28.882
253.59	32.024
253.81	30.452
254.02	28.422
254.23	34.695
254.44	29.849
254.66	27.432
254.87	29.282
255.08	34.714
255.29	35.930
255.50	25.414
255.72	33.929
255.93	40.135
256.14	44.607
256.35	29.122
256.57	38.860
256.78	34.736
256.99	30.556
257.20	45.052
257.41	34.519
257.63	32.440
257.84	33.480
258.05	32.281
258.26	29.565
258.47	31.403
258.69	30.589
258.90	21.877
259.11	31.014
259.32	26.554
259.53	25.938
259.75	25.917
259.96	24.621
260.17	25.172
260.38	28.322
260.59	28.649
260.81	30.488
261.02	30.677
261.23	31.436
261.44	33.308
261.65	31.955
261.87	31.051
262.08	32.635
262.29	33.783
262.50	31.984
262.71	26.372
262.92	33.497
263.14	26.627
263.35	28.794
263.56	29.360
263.77	29.153
263.98	28.571
264.20	33.444
264.41	22.733
264.62	27.145
264.83	20.559
265.04	34.491
265.25	24.146
265.47	30.296
265.68	26.613
265.89	27.115
266.10	19.509
266.31	33.140
266.52	26.079
266.74	24.830
266.95	21.423
267.16	26.454
267.37	25.355
267.58	24.635
267.79	25.627
268.01	25.760
268.22	27.303
268.43	28.178
268.64	28.519
268.85	25.467
269.06	22.711
269.27	33.449
269.49	24.902
269.70	26.772
269.91	27.329
270.12	23.816
270.33	28.586
270.54	23.142
270.75	18.566
270.97	28.720
271.18	20.019
271.39	23.933
271.60	25.912
271.81	25.383
272.02	23.422
272.23	29.274
272.45	24.247
272.66	22.034
272.87	23.862
273.08	24.212
273.29	30.139
273.50	27.766
273.71	26.923
273.92	24.940
274.14	24.275
274.35	27.184
274.56	27.037
274.77	27.859
274.98	28.579
275.19	27.939
275.40	22.959
275.61	25.115
275.83	27.254
276.04	29.713
276.25	28.296
276.46	27.796
276.67	28.962
276.88	30.679
277.09	24.691
277.30	28.394
277.51	24.504
277.73	24.412
277.94	22.751
278.15	28.559
278.36	27.192
278.57	24.761
278.78	22.212
278.99	27.620
279.20	25.048
279.41	29.107
279.62	23.467
279.84	24.556
280.05	22.000
280.26	20.551
280.47	24.509
280.68	25.601
280.89	20.285
281.10	26.935
281.31	22.309
281.52	29.619
281.73	18.936
281.94	20.811
282.16	24.580
282.37	22.762
282.58	19.891
282.79	29.801
283.00	28.111
283.21	23.897
283.42	22.512
283.63	25.690
283.84	21.173
284.05	25.204
284.26	22.426
284.47	25.862
284.68	23.351
284.89	23.794
285.11	23.803
285.32	19.594
285.53	24.674
285.74	26.810
285.95	23.774
286.16	24.233
286.37	22.213
286.58	23.305
286.79	22.392
287.00	23.873
287.21	21.605
287.42	23.868
287.63	23.677
287.84	23.819
288.05	24.262
288.26	21.891
288.48	25.305
288.69	20.681
288.90	22.855
289.11	26.545
289.32	23.016
289.53	24.382
289.74	18.522
289.95	20.903
290.16	25.158
290.37	20.529
290.58	18.322
290.79	20.520
291.00	20.000
291.21	19.356
291.42	18.584
291.63	20.250
291.84	23.846
292.05	17.999
292.26	20.895
292.47	20.067
292.68	17.138
292.89	21.972
293.10	22.029
293.31	20.872
293.52	14.750
293.73	17.919
293.94	18.981
294.15	15.513
294.36	19.740
294.57	19.972
294.79	17.683
295.00	15.809
295.21	20.850
295.42	20.542
295.63	20.509
295.84	17.904
296.05	16.713
296.26	17.294
296.47	18.496
296.68	19.657
296.89	22.973
297.10	20.927
297.31	18.841
297.52	18.180
297.73	20.436
297.94	21.780
298.15	19.085
298.36	20.695
298.57	18.206
298.78	21.981
298.99	18.711
299.20	21.842
299.41	20.671
299.62	20.535
299.83	17.384
300.04	20.646
300.25	21.042
300.46	21.507
300.67	19.752
300.88	20.061
301.09	15.431
301.30	19.762
301.50	15.467
301.71	21.972
301.92	19.893
302.13	17.546
302.34	17.875
302.55	15.714
302.76	16.206
302.97	18.127
303.18	16.667
303.39	16.232
303.60	16.746
303.81	18.970
304.02	14.924
304.23	18.000
304.44	13.319
304.65	15.588
304.86	17.323
305.07	16.540
305.28	15.468
305.49	19.711
305.70	19.064
305.91	16.996
306.12	16.108
306.33	16.266
306.54	16.474
306.75	16.389
306.96	22.444
307.17	17.906
307.38	14.339
307.58	17.123
307.79	16.888
308.00	15.349
308.21	14.536
308.42	16.802
308.63	14.678
308.84	15.193
309.05	14.113
309.26	13.261
309.47	16.804
309.68	18.020
309.89	17.200
310.10	15.957
310.31	16.349
310.52	14.947
310.73	21.136
310.94	12.479
311.14	14.673
311.35	15.948
311.56	15.612
311.77	14.558
311.98	14.685
312.19	15.782
312.40	13.506
312.61	15.602
312.82	15.873
313.03	16.048
313.24	16.742
313.45	17.540
313.66	14.483
313.86	19.982
314.07	14.251
314.28	17.037
314.49	13.156
314.70	17.197
314.91	17.866
315.12	15.350
315.33	16.579
315.54	13.036
315.75	12.945
315.96	11.609
316.16	13.730
316.37	16.152
316.58	13.637
316.79	15.100
317.00	16.989
317.21	15.537
317.42	16.681
317.63	15.280
317.84	14.835
318.05	15.541
318.25	16.043
318.46	14.208
318.67	13.186
318.88	16.870
319.09	17.319
319.30	13.363
319.51	15.248
319.72	15.754
319.93	13.283
320.13	14.747
320.34	16.292
320.55	15.182
320.76	16.498
320.97	16.117
321.18	16.473
321.39	13.133
321.60	14.330
321.80	19.575
322.01	14.312
322.22	13.503
322.43	12.665
322.64	13.712
322.85	16.589
323.06	16.366
323.27	14.311
323.47	15.962
323.68	14.727
323.89	15.202
324.10	15.408
324.31	12.091
324.52	14.946
324.73	19.031
324.93	14.353
325.14	16.816
325.35	15.864
325.56	12.037
325.77	16.450
325.98	16.395
326.19	14.016
326.39	12.473
326.60	13.910
326.81	13.965
327.02	11.948
327.23	13.789
327.44	16.797
327.64	11.569
327.85	10.555
328.06	15.896
328.27	18.572
328.48	15.591
328.69	11.878
328.90	13.254
329.10	13.449
329.31	13.608
329.52	13.165
329.73	16.204
329.94	13.439
330.15	17.085
330.35	17.007
330.56	14.902
330.77	14.312
330.98	11.931
331.19	12.870
331.39	13.235
331.60	14.191
331.81	11.823
332.02	14.644
332.23	13.584
332.44	13.522
332.64	13.985
332.85	12.784
333.06	15.677
333.27	11.901
333.48	14.454
333.68	13.580
333.89	14.345
334.10	12.087
334.31	15.592
334.52	13.665
334.72	14.135
334.93	13.417
335.14	12.317
335.35	12.599
335.56	15.455
335.76	10.890
335.97	15.226
336.18	10.438
336.39	14.778
336.60	13.197
336.80	12.382
337.01	12.372
337.22	13.168
337.43	13.122
337.64	15.917
337.84	13.792
338.05	13.409
338.26	17.473
338.47	15.826
338.68	10.281
338.88	12.871
339.09	12.154
339.30	13.775
339.51	14.894
339.71	15.499
339.92	12.404
340.13	12.570
340.34	13.308
340.55	12.976
340.75	13.715
340.96	11.638
341.17	14.265
341.38	13.145
341.58	13.678
341.79	12.883
342.00	10.952
342.21	12.579
342.41	10.636
342.62	11.451
342.83	14.575
343.04	10.305
343.24	13.534
343.45	14.382
343.66	11.841
343.87	12.212
344.07	10.798
344.28	13.958
344.49	12.832
344.70	14.760
344.90	10.413
345.11	10.416
345.32	12.086
345.53	12.458
345.73	13.201
345.94	14.948
346.15	14.117
346.36	12.016
346.56	13.749
346.77	14.243
346.98	11.764
347.19	13.898
347.39	11.790
347.60	12.729
347.81	13.088
348.02	14.511
348.22	11.357
348.43	13.060
348.64	10.828
348.84	12.335
349.05	12.920
349.26	15.520
349.47	9.855
349.67	11.737
349.88	14.702
350.09	13.684
350.30	15.271
350.50	13.318
350.71	14.461
350.92	13.811
351.12	13.661
351.33	13.288
351.54	12.987
351.74	13.304
351.95	12.073
352.16	14.994
352.37	14.005
352.57	12.836
352.78	13.533
352.99	13.705
353.19	12.575
353.40	14.060
353.61	16.509
353.82	15.677
354.02	16.302
354.23	14.979
354.44	18.761
354.64	16.100
354.85	15.484
355.06	15.466
355.26	14.762
355.47	16.158
355.68	16.296
355.88	18.579
356.09	17.407
356.30	16.711
356.51	18.405
356.71	18.332
356.92	15.592
357.13	20.091
357.33	20.520
357.54	19.522
357.75	16.353
357.95	20.973
358.16	18.727
358.37	22.035
358.57	19.082
358.78	22.834
358.99	20.745
359.19	21.385
359.40	22.696
359.61	22.069
359.81	23.000
360.02	25.109
360.23	21.769
360.43	22.261
360.64	22.706
360.85	23.298
361.05	23.777
361.26	25.231
361.47	24.374
361.67	27.067
361.88	24.097
362.09	26.950
362.29	25.581
362.50	26.769
362.70	25.381
362.91	28.484
363.12	26.613
363.32	27.712
363.53	28.174
363.74	28.799
363.94	28.806
364.15	29.832
364.36	30.123
364.56	28.833
364.77	28.879
364.98	29.442
365.18	28.934
365.39	30.682
365.59	28.418
365.80	29.480
366.01	30.879
366.21	29.799
366.42	28.325
366.63	31.950
366.83	29.400
367.04	28.194
367.24	31.980
367.45	30.695
367.66	29.640
367.86	31.991
368.07	30.589
368.28	30.508
368.48	30.622
368.69	30.287
368.89	30.840
369.10	31.350
369.31	29.783
369.51	32.760
369.72	32.548
369.92	32.516
370.13	30.767
370.34	30.799
370.54	27.012
370.75	32.035
370.95	29.623
371.16	31.518
371.37	30.973
371.57	30.612
371.78	30.803
371.98	31.707
372.19	31.866
372.40	32.419
372.60	32.312
372.81	32.697
373.01	30.411
373.22	31.902
373.43	33.045
373.63	32.443
373.84	32.427
374.04	32.279
374.25	32.027
374.46	31.922
374.66	30.726
374.87	32.979
375.07	29.522
375.28	31.543
375.48	31.046
375.69	32.318
375.90	29.121
376.10	30.546
376.31	30.791
376.51	30.966
376.72	31.261
376.92	30.153
377.13	30.950
377.34	31.463
377.54	30.808
377.75	32.632
377.95	30.056
378.16	31.838
378.36	31.981
378.57	31.976
378.77	30.730
378.98	31.848
379.19	30.227
379.39	30.983
379.60	29.976
379.80	32.169
380.01	31.964
380.21	31.213
380.42	31.488
380.62	30.654
380.83	30.312
381.04	31.153
381.24	30.519
381.45	30.806
381.65	29.162
381.86	30.485
382.06	31.041
382.27	31.055
382.47	30.182
382.68	32.129
382.88	29.977
383.09	30.260
383.29	30.546
383.50	31.508
383.71	29.704
383.91	30.751
384.12	29.676
384.32	30.127
384.53	30.163
384.73	30.048
384.94	30.223
385.14	30.137
385.35	29.317
385.55	30.558
385.76	29.109
385.96	29.116
386.17	29.714
386.37	30.928
386.58	29.787
386.78	32.050
386.99	28.832
387.19	30.969
387.40	29.785
387.60	31.082
387.81	29.416
388.01	29.796
388.22	29.653
388.42	31.354
388.63	30.207
388.83	31.423
389.04	28.800
389.24	30.745
389.45	30.000
389.65	29.477
389.86	29.551
390.06	29.786
390.27	29.613
390.47	29.039
390.68	28.533
390.88	30.021
391.09	29.554
391.29	30.898
391.50	29.501
391.70	29.865
391.91	29.655
392.11	29.542
392.32	29.171
392.52	29.790
392.73	28.766
392.93	30.487
393.14	29.193
393.34	29.142
393.55	29.624
393.75	30.302
393.95	29.271
394.16	30.675
394.36	29.467
394.57	30.451
394.77	28.448
394.98	29.500
395.18	28.824
395.39	29.283
395.59	29.441
395.80	30.381
396.00	30.118
396.21	30.462
396.41	29.063
396.61	29.959
396.82	28.807
397.02	31.143
397.23	29.377
397.43	29.692
397.64	28.196
397.84	30.266
398.05	28.336
398.25	30.076
398.45	29.416
398.66	28.093
398.86	29.640
399.07	29.821
399.27	28.702
399.48	29.407
399.68	27.998
399.89	28.286
400.09	28.787
400.29	27.763
400.50	28.745
400.70	29.169
400.91	28.002
401.11	28.590
401.32	29.125
401.52	27.959
401.72	27.617
401.93	29.983
402.13	27.586
402.34	28.448
402.54	27.374
402.75	28.944
402.95	27.489
403.15	28.731
403.36	27.689
403.56	29.051
403.77	27.291
403.97	27.143
404.17	26.776
404.38	28.099
404.58	27.243
404.79	28.364
404.99	27.196
405.19	28.845
405.40	27.747
405.60	27.451
405.81	27.662
406.01	27.540
406.21	27.559
406.42	29.201
406.62	27.036
406.83	27.756
407.03	28.067
407.23	27.698
407.44	27.070
407.64	27.997
407.85	26.953
408.05	27.304
408.25	27.116
408.46	28.039
408.66	27.323
408.87	27.537
409.07	26.745
409.27	26.576
409.48	26.819
409.68	27.866
409.88	25.234
410.09	26.214
410.29	26.165
410.50	27.169
410.70	26.417
410.90	26.171
411.11	26.169
411.31	26.953
411.51	26.720
411.72	27.412
411.92	26.887
412.12	26.901
412.33	26.220
412.53	26.240
412.74	25.481
412.94	26.980
413.14	26.524
413.35	26.336
413.55	26.709
413.75	27.059
413.96	25.951
414.16	25.863
414.36	25.509
414.57	27.500
414.77	25.587
414.97	26.086
415.18	25.685
415.38	26.192
415.58	24.887
415.79	25.870
415.99	24.929
416.19	25.922
416.40	25.068
416.60	25.412
416.80	24.875
417.01	25.118
417.21	24.585
417.41	25.810
417.62	25.028
417.82	25.496
418.02	24.605
418.23	25.382
418.43	25.149
418.63	24.750
418.84	24.933
419.04	24.773
419.24	25.148
419.45	24.796
419.65	24.514
419.85	25.156
420.06	24.721
420.26	24.705
420.46	24.542
420.67	24.711
420.87	24.690
421.07	24.036
421.28	24.743
421.48	24.692
421.68	24.525
421.88	24.329
422.09	24.673
422.29	24.588
422.49	24.337
422.70	24.029
422.90	24.592
423.10	25.046
423.31	24.416
423.51	24.232
423.71	24.561
423.91	24.997
424.12	24.458
424.32	24.367
424.52	24.326
424.73	24.129
424.93	24.830
425.13	24.234
425.33	24.018
425.54	24.030
425.74	24.659
425.94	24.390
426.15	24.949
426.35	24.764
426.55	24.955
426.75	25.070
426.96	24.987
427.16	24.697
427.36	25.259
427.57	25.270
427.77	25.406
427.97	24.920
428.17	25.195
428.38	25.088
428.58	25.067
428.78	25.695
428.98	24.805
429.19	24.859
429.39	24.923
429.59	25.238
429.79	24.385
430.00	24.682
430.20	24.692
430.40	25.549
430.60	25.162
430.81	24.468
431.01	24.810
431.21	24.953
431.41	24.952
431.62	25.128
431.82	24.996
432.02	25.385
432.22	24.581
432.43	25.649
432.63	25.400
432.83	24.904
433.03	24.676
433.24	24.487
433.44	24.502
433.64	24.760
433.84	25.037
434.05	25.001
434.25	25.184
434.45	25.750
434.65	25.222
434.85	25.836
435.06	25.648
435.26	25.373
435.46	26.006
435.66	26.096
435.87	25.922
436.07	25.756
436.27	25.966
436.47	25.492
436.67	25.854
436.88	25.900
437.08	25.216
437.28	25.606
437.48	26.088
437.69	26.101
437.89	25.548
438.09	25.432
438.29	25.590
438.49	25.841
438.70	26.029
438.90	25.680
439.10	25.314
439.30	25.117
439.50	25.262
439.71	26.131
439.91	25.797
440.11	26.258
440.31	25.756
440.51	25.509
440.72	25.359
440.92	25.241
441.12	26.053
441.32	26.216
441.52	26.306
441.72	25.924
441.93	26.076
442.13	26.285
442.33	26.285
442.53	26.289
442.73	25.730
442.94	26.021
443.14	26.857
443.34	26.561
443.54	26.676
443.74	26.500
443.94	26.565
444.15	25.949
444.35	26.917
444.55	26.183
444.75	25.882
444.95	26.366
445.15	25.808
445.36	25.650
445.56	25.908
445.76	26.048
445.96	25.606
446.16	25.758
446.36	25.800
446.57	26.122
446.77	25.755
446.97	25.577
447.17	26.561
447.37	26.700
447.57	26.489
447.77	26.590
447.98	26.464
448.18	26.644
448.38	26.825
448.58	27.123
448.78	26.878
448.98	26.558
449.18	26.678
449.39	27.134
449.59	26.591
449.79	27.207
449.99	27.340
450.19	27.449
450.39	27.563
450.59	27.009
450.79	27.249
451.00	26.966
451.20	28.673
451.40	27.290
451.60	26.935
451.80	27.207
452.00	26.650
452.20	26.877
452.40	26.514
452.61	26.967
452.81	27.018
453.01	26.578
453.21	26.876
453.41	26.360
453.61	27.106
453.81	27.521
454.01	26.591
454.21	27.354
454.42	27.109
454.62	27.101
454.82	26.570
455.02	26.896
455.22	26.901
455.42	26.551
455.62	26.840
455.82	27.041
456.02	27.021
456.23	26.835
456.43	26.697
456.63	26.387
456.83	26.534
457.03	26.919
457.23	26.967
457.43	27.125
457.63	26.024
457.83	26.737
458.03	26.555
458.23	26.476
458.43	26.531
458.64	26.230
458.84	27.023
459.04	26.591
459.24	26.129
459.44	26.229
459.64	25.762
459.84	25.470
460.04	26.203
460.24	25.753
460.44	26.154
460.64	26.370
460.84	26.493
461.04	26.039
461.24	26.923
461.45	26.484
461.65	26.822
461.85	27.464
