SpectraSuite Data File
++++++++++++++++++++++++++++++++++++
Date: Tue Sep 24 03:01:59 EST 2019
User: sgrac
Dark Spectrum Present: Yes
Reference Spectrum Present: Yes
Number of Sampled Component Spectra: 1
Spectrometers: USB4E01596
Integration Time (usec): 100000 (USB4E01596)
Spectra Averaged: 3 (USB4E01596)
Boxcar Smoothing: 0 (USB4E01596)
Correct for Electrical Dark: No (USB4E01596)
Strobe/Lamp Enabled: Yes (USB4E01596)
Correct for Detector Non-linearity: No (USB4E01596)
Correct for Stray Light: No (USB4E01596)
Number of Pixels in Processed Spectrum: 3648
>>>>>Begin Processed Spectral Data<<<<<
178.44	677.273
178.66	677.273
178.87	677.273
179.09	426.415
179.30	388.889
179.52	-423.333
179.74	392.453
179.95	417.910
180.17	-8800.000
180.38	-7200.000
180.60	305.618
180.82	-1807.143
181.03	610.811
181.25	-1156.522
181.46	348.611
181.68	2644.444
181.89	-816.667
182.11	339.394
182.33	571.429
182.54	384.211
182.76	-427.500
182.97	147.205
183.19	413.333
183.40	2244.444
183.62	317.073
183.84	221.333
184.05	456.522
184.27	259.259
184.48	-1188.889
184.70	235.484
184.91	327.632
185.13	367.105
185.34	313.978
185.56	396.875
185.78	591.667
185.99	1400.000
186.21	385.000
186.42	228.571
186.64	288.172
186.85	518.750
187.07	-2350.000
187.28	-729.412
187.50	-16400.000
187.72	18000.000
187.93	-754.167
188.15	509.302
188.36	300.000
188.58	318.919
188.79	-2900.000
189.01	-1584.615
189.22	964.000
189.44	352.326
189.65	336.364
189.87	-2328.571
190.09	638.235
190.30	610.526
190.52	1242.857
190.73	2983.333
190.95	676.316
191.16	216.456
191.38	1818.182
191.59	1942.857
191.81	600.000
192.02	536.170
192.24	373.469
192.45	1370.588
192.67	244.156
192.88	246.939
193.10	456.061
193.31	219.192
193.53	502.632
193.74	-21800.000
193.96	346.479
194.18	197.170
194.39	313.043
194.61	287.963
194.82	217.797
195.04	284.112
195.25	0.000
195.47	-17700.000
195.68	227.000
195.90	337.647
196.11	312.048
196.33	418.605
196.54	211.927
196.76	569.697
196.97	-1466.667
197.19	218.605
197.40	377.193
197.62	420.755
197.83	264.423
198.05	393.151
198.26	0.000
198.48	-348.889
198.69	580.000
198.91	2428.571
199.12	-5725.000
199.34	287.778
199.55	-18800.000
199.77	1300.000
199.98	338.028
200.20	227.273
200.41	359.211
200.63	741.176
200.84	-1392.308
201.06	267.089
201.27	564.000
201.49	578.723
201.70	239.080
201.91	429.577
202.13	340.299
202.34	-820.000
202.56	181.690
202.77	2412.500
202.99	3150.000
203.20	326.087
203.42	570.270
203.63	1675.000
203.85	252.941
204.06	357.692
204.28	218.644
204.49	766.667
204.71	-356.250
204.92	252.899
205.14	732.258
205.35	561.905
205.56	251.429
205.78	-496.000
205.99	528.205
206.21	412.281
206.42	257.576
206.64	865.217
206.85	307.229
207.07	-222.581
207.28	492.000
207.50	296.739
207.71	383.333
207.93	5766.667
208.14	584.211
208.35	-1525.000
208.57	-548.276
208.78	177.622
209.00	620.000
209.21	263.366
209.43	-3600.000
209.64	184.659
209.86	401.754
210.07	430.952
210.28	568.966
210.50	2633.333
210.71	532.258
210.93	-1160.000
211.14	356.364
211.36	219.792
211.57	959.259
211.78	2733.333
212.00	-1211.111
212.21	436.585
212.43	471.429
212.64	348.780
212.86	878.261
213.07	352.941
213.29	1650.000
213.50	153.175
213.71	295.181
213.93	192.308
214.14	157.265
214.36	175.294
214.57	-1670.000
214.78	417.949
215.00	225.620
215.21	535.000
215.43	680.000
215.64	206.481
215.86	280.189
216.07	5625.000
216.28	379.104
216.50	273.529
216.71	634.483
216.93	-511.628
217.14	246.465
217.35	375.000
217.57	210.256
217.78	285.484
218.00	236.364
218.21	291.549
218.42	959.259
218.64	1386.667
218.85	476.786
219.07	189.076
219.28	406.154
219.49	233.945
219.71	425.714
219.92	592.000
220.14	469.565
220.35	1554.545
220.56	409.756
220.78	590.909
220.99	278.462
221.21	295.946
221.42	262.162
221.63	2550.000
221.85	764.286
222.06	375.000
222.28	348.101
222.49	183.871
222.70	244.000
222.92	292.982
223.13	738.889
223.34	503.125
223.56	174.016
223.77	170.833
223.99	240.000
224.20	147.945
224.41	281.333
224.63	216.327
224.84	202.857
225.05	139.200
225.27	400.000
225.48	189.899
225.69	206.250
225.91	242.169
226.12	145.408
226.34	132.402
226.55	105.532
226.76	98.947
226.98	151.875
227.19	84.314
227.40	108.225
227.62	89.320
227.83	77.624
228.04	68.675
228.26	60.360
228.47	50.323
228.69	45.510
228.90	31.927
229.11	39.791
229.33	26.220
229.54	24.224
229.75	19.372
229.97	23.361
230.18	26.510
230.39	19.819
230.61	15.921
230.82	22.166
231.03	20.900
231.25	29.812
231.46	18.983
231.67	14.631
231.89	31.863
232.10	22.113
232.31	36.817
232.53	41.561
232.74	38.110
232.95	42.587
233.17	35.664
233.38	26.131
233.59	47.152
233.81	39.041
234.02	48.282
234.23	47.561
234.45	39.234
234.66	38.545
234.87	38.140
235.09	30.108
235.30	39.390
235.51	44.597
235.73	34.508
235.94	32.132
236.15	40.794
236.36	28.680
236.58	27.205
236.79	26.341
237.00	29.722
237.22	35.873
237.43	36.167
237.64	37.000
237.86	33.795
238.07	42.146
238.28	31.259
238.50	32.275
238.71	38.947
238.92	27.630
239.13	32.717
239.35	26.324
239.56	28.027
239.77	38.472
239.99	23.733
240.20	29.504
240.41	35.636
240.63	20.950
240.84	24.028
241.05	21.772
241.26	23.733
241.48	23.110
241.69	18.809
241.90	13.643
242.12	13.636
242.33	12.089
242.54	13.686
242.75	8.465
242.97	11.032
243.18	9.573
243.39	8.316
243.61	9.488
243.82	9.564
244.03	7.443
244.24	11.409
244.46	9.680
244.67	11.667
244.88	8.900
245.09	10.343
245.31	7.103
245.52	11.655
245.73	13.385
245.95	11.375
246.16	11.895
246.37	7.572
246.58	12.685
246.80	11.068
247.01	7.143
247.22	7.713
247.43	6.871
247.65	6.906
247.86	5.388
248.07	6.590
248.28	3.810
248.50	4.984
248.71	6.169
248.92	3.839
249.13	5.815
249.35	3.711
249.56	6.457
249.77	6.001
249.98	5.233
250.20	9.599
250.41	6.328
250.62	11.236
250.83	8.315
251.05	12.559
251.26	13.505
251.47	11.844
251.68	9.939
251.90	6.503
252.11	8.799
252.32	12.232
252.53	11.819
252.75	11.594
252.96	11.720
253.17	10.795
253.38	8.344
253.59	11.361
253.81	10.509
254.02	7.825
254.23	10.433
254.44	10.181
254.66	10.479
254.87	14.208
255.08	13.072
255.29	12.965
255.50	14.521
255.72	10.338
255.93	15.209
256.14	19.633
256.35	18.011
256.57	14.942
256.78	12.804
256.99	12.691
257.20	14.209
257.41	15.259
257.63	18.537
257.84	11.536
258.05	13.278
258.26	12.060
258.47	10.851
258.69	8.306
258.90	11.912
259.11	6.503
259.32	7.905
259.53	5.956
259.75	6.862
259.96	3.209
260.17	6.635
260.38	5.940
260.59	4.753
260.81	4.031
261.02	4.615
261.23	4.258
261.44	3.371
261.65	4.072
261.87	3.813
262.08	3.244
262.29	5.435
262.50	7.098
262.71	5.775
262.92	6.608
263.14	5.242
263.35	7.461
263.56	11.706
263.77	10.613
263.98	7.547
264.20	8.633
264.41	9.663
264.62	8.288
264.83	8.044
265.04	9.902
265.25	8.094
265.47	11.765
265.68	8.249
265.89	12.495
266.10	7.832
266.31	8.440
266.52	9.610
266.74	8.033
266.95	5.440
267.16	9.028
267.37	7.729
267.58	11.226
267.79	5.942
268.01	3.898
268.22	4.404
268.43	6.758
268.64	6.239
268.85	6.720
269.06	7.337
269.27	7.162
269.49	6.384
269.70	6.128
269.91	7.312
270.12	7.822
270.33	8.325
270.54	4.959
270.75	8.487
270.97	6.564
271.18	7.295
271.39	6.682
271.60	7.226
271.81	4.118
272.02	6.281
272.23	5.832
272.45	5.110
272.66	5.741
272.87	5.578
273.08	4.730
273.29	4.420
273.50	6.900
273.71	5.800
273.92	2.989
274.14	3.965
274.35	5.955
274.56	5.014
274.77	5.049
274.98	5.536
275.19	7.139
275.40	4.673
275.61	6.568
275.83	6.856
276.04	6.261
276.25	8.715
276.46	7.644
276.67	8.230
276.88	6.316
277.09	6.230
277.30	5.919
277.51	7.060
277.73	5.293
277.94	8.290
278.15	6.103
278.36	5.913
278.57	5.542
278.78	7.346
278.99	5.576
279.20	7.402
279.41	9.462
279.62	5.141
279.84	3.917
280.05	6.756
280.26	6.690
280.47	5.490
280.68	7.575
280.89	3.619
281.10	5.088
281.31	8.029
281.52	6.169
281.73	6.581
281.94	6.198
282.16	5.373
282.37	5.436
282.58	5.605
282.79	5.525
283.00	4.867
283.21	4.081
283.42	4.760
283.63	5.806
283.84	6.983
284.05	5.309
284.26	6.381
284.47	4.072
284.68	4.544
284.89	3.470
285.11	3.469
285.32	6.234
285.53	4.788
285.74	5.848
285.95	4.428
286.16	3.140
286.37	1.782
286.58	3.575
286.79	4.226
287.00	3.847
287.21	4.009
287.42	4.599
287.63	2.410
287.84	4.323
288.05	5.006
288.26	3.762
288.48	2.572
288.69	3.711
288.90	4.356
289.11	5.172
289.32	2.936
289.53	4.939
289.74	3.697
289.95	5.979
290.16	5.893
290.37	3.267
290.58	3.832
290.79	4.071
291.00	3.572
291.21	3.770
291.42	5.262
291.63	3.898
291.84	3.956
292.05	5.139
292.26	3.832
292.47	4.985
292.68	2.501
292.89	3.122
293.10	4.436
293.31	3.035
293.52	3.434
293.73	5.062
293.94	6.051
294.15	4.384
294.36	5.687
294.57	5.325
294.79	5.895
295.00	4.280
295.21	4.125
295.42	4.890
295.63	5.868
295.84	4.283
296.05	4.555
296.26	4.621
296.47	3.665
296.68	3.237
296.89	4.067
297.10	4.171
297.31	3.903
297.52	3.851
297.73	3.608
297.94	3.646
298.15	3.969
298.36	3.777
298.57	3.711
298.78	3.274
298.99	4.011
299.20	3.716
299.41	3.922
299.62	2.795
299.83	3.862
300.04	3.437
300.25	5.431
300.46	4.048
300.67	4.140
300.88	4.464
301.09	3.371
301.30	5.795
301.50	4.718
301.71	4.813
301.92	5.409
302.13	4.040
302.34	2.555
302.55	4.978
302.76	4.270
302.97	4.554
303.18	3.992
303.39	5.419
303.60	5.486
303.81	5.532
304.02	3.907
304.23	4.431
304.44	3.591
304.65	4.879
304.86	4.154
305.07	5.216
305.28	4.966
305.49	3.104
305.70	4.995
305.91	3.712
306.12	2.862
306.33	6.316
306.54	3.708
306.75	3.833
306.96	4.455
307.17	3.342
307.38	5.483
307.58	5.625
307.79	3.694
308.00	6.482
308.21	5.638
308.42	4.925
308.63	4.820
308.84	5.458
309.05	5.859
309.26	3.266
309.47	3.379
309.68	4.212
309.89	5.119
310.10	3.341
310.31	3.584
310.52	3.815
310.73	3.484
310.94	4.148
311.14	4.185
311.35	3.567
311.56	4.038
311.77	2.851
311.98	3.479
312.19	2.986
312.40	3.044
312.61	2.562
312.82	3.234
313.03	3.616
313.24	3.278
313.45	4.293
313.66	4.185
313.86	4.798
314.07	4.488
314.28	4.076
314.49	5.835
314.70	4.008
314.91	4.888
315.12	4.819
315.33	4.274
315.54	3.831
315.75	2.786
315.96	3.333
316.16	4.389
316.37	5.601
316.58	3.276
316.79	5.361
317.00	5.217
317.21	6.607
317.42	6.062
317.63	5.772
317.84	5.534
318.05	5.073
318.25	4.149
318.46	4.946
318.67	3.296
318.88	5.586
319.09	4.226
319.30	4.462
319.51	4.664
319.72	3.911
319.93	3.538
320.13	4.103
320.34	6.001
320.55	4.933
320.76	4.633
320.97	4.239
321.18	5.171
321.39	3.514
321.60	5.260
321.80	4.365
322.01	4.593
322.22	6.156
322.43	3.741
322.64	4.713
322.85	4.000
323.06	5.214
323.27	5.299
323.47	5.153
323.68	4.732
323.89	3.968
324.10	4.917
324.31	4.561
324.52	3.429
324.73	4.725
324.93	4.626
325.14	3.894
325.35	3.861
325.56	5.304
325.77	3.766
325.98	3.953
326.19	4.006
326.39	2.689
326.60	4.593
326.81	3.537
327.02	5.183
327.23	4.073
327.44	4.236
327.64	2.736
327.85	3.651
328.06	2.948
328.27	4.422
328.48	4.014
328.69	3.820
328.90	3.413
329.10	3.977
329.31	5.283
329.52	4.338
329.73	4.650
329.94	4.125
330.15	4.307
330.35	4.760
330.56	4.315
330.77	4.114
330.98	5.608
331.19	4.160
331.39	4.060
331.60	3.749
331.81	3.674
332.02	4.385
332.23	5.491
332.44	3.914
332.64	5.084
332.85	4.226
333.06	2.602
333.27	4.267
333.48	3.775
333.68	3.306
333.89	4.968
334.10	3.933
334.31	3.878
334.52	4.336
334.72	3.772
334.93	4.424
335.14	3.399
335.35	4.482
335.56	4.774
335.76	4.124
335.97	4.274
336.18	3.654
336.39	2.833
336.60	3.250
336.80	2.144
337.01	4.710
337.22	3.424
337.43	4.404
337.64	3.597
337.84	4.317
338.05	3.621
338.26	4.643
338.47	3.462
338.68	2.973
338.88	4.146
339.09	3.345
339.30	3.572
339.51	2.981
339.71	3.449
339.92	4.186
340.13	4.390
340.34	4.370
340.55	3.698
340.75	2.877
340.96	3.096
341.17	4.222
341.38	4.045
341.58	3.582
341.79	3.982
342.00	3.720
342.21	3.785
342.41	3.046
342.62	3.488
342.83	4.426
343.04	3.639
343.24	3.200
343.45	3.122
343.66	3.830
343.87	3.719
344.07	2.988
344.28	3.358
344.49	3.775
344.70	3.701
344.90	2.816
345.11	3.850
345.32	2.962
345.53	3.226
345.73	3.525
345.94	3.896
346.15	2.949
346.36	2.640
346.56	2.489
346.77	2.668
346.98	3.074
347.19	2.352
347.39	2.715
347.60	2.988
347.81	2.985
348.02	5.135
348.22	3.958
348.43	2.528
348.64	3.633
348.84	2.377
349.05	3.655
349.26	4.152
349.47	2.070
349.67	3.826
349.88	3.970
350.09	3.745
350.30	5.008
350.50	3.026
350.71	3.278
350.92	2.633
351.12	2.586
351.33	2.698
351.54	2.686
351.74	3.116
351.95	3.399
352.16	3.512
352.37	4.138
352.57	2.472
352.78	3.154
352.99	3.844
353.19	3.019
353.40	3.084
353.61	3.680
353.82	2.892
354.02	3.257
354.23	3.633
354.44	3.311
354.64	3.321
354.85	2.916
355.06	3.409
355.26	3.701
355.47	3.394
355.68	3.906
355.88	3.287
356.09	2.272
356.30	2.372
356.51	2.942
356.71	3.353
356.92	2.210
357.13	4.014
357.33	3.256
357.54	2.603
357.75	2.417
357.95	4.160
358.16	3.110
358.37	4.033
358.57	2.592
358.78	2.466
358.99	2.453
359.19	2.130
359.40	2.164
359.61	2.462
359.81	3.790
360.02	3.338
360.23	2.905
360.43	3.386
360.64	2.227
360.85	2.687
361.05	2.362
361.26	3.014
361.47	2.684
361.67	2.362
361.88	2.186
362.09	2.840
362.29	2.605
362.50	2.570
362.70	2.136
362.91	2.811
363.12	1.831
363.32	2.021
363.53	2.160
363.74	2.146
363.94	2.032
364.15	2.302
364.36	2.893
364.56	1.616
364.77	3.101
364.98	4.072
365.18	2.607
365.39	3.467
365.59	2.269
365.80	1.617
366.01	3.596
366.21	3.095
366.42	2.661
366.63	3.081
366.83	2.866
367.04	2.432
367.24	2.674
367.45	2.176
367.66	1.941
367.86	3.810
368.07	2.446
368.28	2.436
368.48	2.567
368.69	2.306
368.89	3.350
369.10	2.992
369.31	3.292
369.51	3.242
369.72	3.215
369.92	3.433
370.13	3.522
370.34	2.634
370.54	2.343
370.75	3.142
370.95	3.333
371.16	2.442
371.37	2.960
371.57	2.748
371.78	2.682
371.98	3.030
372.19	2.213
372.40	2.845
372.60	3.516
372.81	2.611
373.01	2.081
373.22	2.339
373.43	3.120
373.63	2.832
373.84	2.873
374.04	2.093
374.25	2.790
374.46	2.492
374.66	3.396
374.87	3.002
375.07	2.835
375.28	1.757
375.48	2.857
375.69	3.007
375.90	2.279
376.10	2.630
376.31	2.460
376.51	2.778
376.72	2.394
376.92	1.919
377.13	2.203
377.34	3.332
377.54	3.161
377.75	3.127
377.95	2.960
378.16	2.597
378.36	3.375
378.57	2.357
378.77	2.726
378.98	2.464
379.19	2.392
379.39	2.273
379.60	3.117
379.80	2.199
380.01	2.648
380.21	1.573
380.42	3.641
380.62	2.793
380.83	2.777
381.04	2.344
381.24	2.994
381.45	2.789
381.65	2.720
381.86	2.970
382.06	3.727
382.27	2.237
382.47	3.074
382.68	2.994
382.88	3.156
383.09	3.554
383.29	2.550
383.50	3.671
383.71	2.718
383.91	3.130
384.12	2.595
384.32	2.724
384.53	2.660
384.73	2.441
384.94	2.529
385.14	2.716
385.35	2.850
385.55	2.840
385.76	3.609
385.96	2.955
386.17	2.934
386.37	3.282
386.58	2.886
386.78	4.158
386.99	2.669
387.19	3.285
387.40	2.699
387.60	3.995
387.81	3.034
388.01	3.133
388.22	3.556
388.42	4.173
388.63	5.098
388.83	4.382
389.04	2.439
389.24	2.466
389.45	3.048
389.65	3.058
389.86	3.251
390.06	3.065
390.27	3.326
390.47	2.962
390.68	2.784
390.88	4.953
391.09	4.109
391.29	4.271
391.50	3.541
391.70	3.587
391.91	3.127
392.11	3.636
392.32	4.219
392.52	4.003
392.73	3.788
392.93	4.201
393.14	4.022
393.34	3.455
393.55	4.518
393.75	3.983
393.95	3.798
394.16	4.355
394.36	4.754
394.57	4.593
394.77	4.032
394.98	4.118
395.18	4.776
395.39	4.246
395.59	4.408
395.80	4.063
396.00	4.279
396.21	5.015
396.41	3.749
396.61	5.110
396.82	4.617
397.02	5.801
397.23	5.049
397.43	4.261
397.64	3.561
397.84	5.137
398.05	3.755
398.25	4.858
398.45	3.963
398.66	5.056
398.86	4.290
399.07	5.586
399.27	4.657
399.48	5.436
399.68	4.521
399.89	4.552
400.09	5.205
400.29	4.760
400.50	5.021
400.70	5.225
400.91	4.505
401.11	4.584
401.32	4.657
401.52	3.055
401.72	4.452
401.93	6.268
402.13	4.685
402.34	5.229
402.54	3.354
402.75	6.117
402.95	3.283
403.15	5.323
403.36	3.827
403.56	5.572
403.77	4.193
403.97	5.061
404.17	4.944
404.38	5.585
404.58	4.117
404.79	4.968
404.99	5.436
405.19	4.222
405.40	5.044
405.60	5.306
405.81	4.170
406.01	4.835
406.21	4.447
406.42	5.359
406.62	4.789
406.83	5.642
407.03	5.557
407.23	4.452
407.44	4.622
407.64	5.586
407.85	4.561
408.05	5.285
408.25	5.145
408.46	5.949
408.66	5.201
408.87	4.854
409.07	4.973
409.27	4.899
409.48	5.201
409.68	5.714
409.88	3.858
410.09	4.963
410.29	4.838
410.50	6.447
410.70	3.802
410.90	4.682
411.11	4.072
411.31	4.827
411.51	5.629
411.72	5.561
411.92	4.460
412.12	4.295
412.33	4.572
412.53	4.168
412.74	3.427
412.94	5.068
413.14	4.968
413.35	4.388
413.55	4.753
413.75	5.577
413.96	4.596
414.16	4.970
414.36	4.796
414.57	4.388
414.77	4.154
414.97	5.422
415.18	3.894
415.38	4.787
415.58	4.878
415.79	4.662
415.99	4.201
416.19	5.201
416.40	4.353
416.60	5.009
416.80	3.973
417.01	4.262
417.21	3.836
417.41	5.576
417.62	4.371
417.82	4.959
418.02	3.816
418.23	5.135
418.43	4.536
418.63	5.168
418.84	5.598
419.04	4.721
419.24	5.477
419.45	5.605
419.65	5.585
419.85	5.308
420.06	5.329
420.26	5.452
420.46	5.314
420.67	5.829
420.87	5.717
421.07	6.065
421.28	5.328
421.48	6.010
421.68	5.827
421.88	5.648
422.09	5.780
422.29	5.457
422.49	4.895
422.70	5.884
422.90	5.571
423.10	5.777
423.31	5.556
423.51	6.373
423.71	5.333
423.91	5.708
424.12	5.565
424.32	5.876
424.52	5.465
424.73	5.319
424.93	5.592
425.13	5.369
425.33	5.420
425.54	6.070
425.74	5.571
425.94	6.301
426.15	5.406
426.35	5.392
426.55	5.881
426.75	5.568
426.96	5.244
427.16	5.280
427.36	5.323
427.57	5.669
427.77	4.821
427.97	5.144
428.17	5.358
428.38	4.929
428.58	3.624
428.78	5.816
428.98	4.301
429.19	4.610
429.39	4.122
429.59	4.950
429.79	3.595
430.00	3.779
430.20	3.843
430.40	4.475
430.60	4.431
430.81	4.179
431.01	4.304
431.21	5.069
431.41	4.362
431.62	4.494
431.82	4.355
432.02	5.495
432.22	4.440
432.43	3.825
432.63	3.908
432.83	4.685
433.03	4.189
433.24	3.971
433.44	4.475
433.64	5.276
433.84	4.609
434.05	5.069
434.25	4.683
434.45	5.444
434.65	5.724
434.85	6.001
435.06	5.200
435.26	5.037
435.46	4.756
435.66	5.326
435.87	4.413
436.07	5.465
436.27	5.093
436.47	4.747
436.67	4.422
436.88	5.253
437.08	4.694
437.28	5.356
437.48	4.956
437.69	5.225
437.89	4.562
438.09	5.705
438.29	4.425
438.49	5.307
438.70	5.463
438.90	4.662
439.10	4.465
439.30	5.382
439.50	4.284
439.71	5.635
439.91	4.887
440.11	5.950
440.31	5.219
440.51	5.421
440.72	5.102
440.92	5.678
441.12	5.620
441.32	6.315
441.52	5.642
441.72	5.707
441.93	5.642
442.13	5.811
442.33	5.665
442.53	6.221
442.73	5.080
442.94	5.552
443.14	5.169
443.34	6.269
443.54	5.733
443.74	6.104
443.94	5.400
444.15	5.400
444.35	4.698
444.55	5.713
444.75	5.156
444.95	5.727
445.15	5.550
445.36	5.933
445.56	4.937
445.76	5.816
445.96	5.435
446.16	5.022
446.36	5.134
446.57	6.055
446.77	5.267
446.97	5.885
447.17	6.238
447.37	6.125
447.57	5.886
447.77	6.234
447.98	5.716
448.18	6.438
448.38	5.569
448.58	6.348
448.78	5.907
448.98	5.893
449.18	5.320
449.39	5.678
449.59	5.484
449.79	5.679
449.99	5.227
450.19	6.000
450.39	5.313
450.59	5.507
450.79	5.280
451.00	6.268
451.20	6.045
451.40	5.088
451.60	4.980
451.80	5.950
452.00	5.134
452.20	5.379
452.40	5.541
452.61	5.493
452.81	5.581
453.01	5.896
453.21	5.343
453.41	5.696
453.61	4.939
453.81	5.647
454.01	5.404
454.21	5.669
454.42	5.557
454.62	5.631
454.82	5.050
455.02	5.340
455.22	4.738
455.42	5.106
455.62	4.590
455.82	5.725
456.02	4.884
456.23	4.994
456.43	5.243
456.63	4.800
456.83	3.944
457.03	5.453
457.23	4.914
457.43	5.347
457.63	4.920
457.83	5.826
458.03	4.742
458.23	5.549
458.43	5.240
458.64	5.546
458.84	5.147
459.04	5.505
459.24	5.488
459.44	5.952
459.64	5.929
459.84	5.969
460.04	5.623
460.24	6.071
460.44	6.092
460.64	6.103
460.84	5.860
461.04	6.539
461.24	6.204
461.45	6.399
461.65	6.213
461.85	6.499
462.05	5.810
462.25	6.183
462.45	6.169
462.65	6.091
462.85	5.056
463.05	5.880
463.25	4.719
463.45	5.713
463.65	5.103
463.85	5.709
464.05	4.824
464.25	5.413
464.45	5.620
464.65	5.383
464.85	4.512
465.05	5.164
465.26	5.293
465.46	5.859
465.66	5.408
465.86	5.744
466.06	5.137
466.26	5.444
466.46	4.619
466.66	5.225
466.86	5.055
467.06	5.831
467.26	5.026
467.46	5.557
467.66	5.065
467.86	5.164
468.06	5.372
468.26	5.126
468.46	5.378
468.66	5.816
468.86	4.897
469.06	5.656
469.26	4.366
469.46	5.572
469.66	4.734
469.86	5.791
470.06	5.527
470.26	5.908
470.46	5.070
470.66	5.840
470.86	4.384
471.06	5.220
471.26	4.253
471.46	4.970
471.66	4.842
471.86	5.477
472.06	4.973
472.26	5.741
472.46	5.801
472.66	5.694
472.86	4.712
473.06	5.688
473.26	5.200
473.46	5.666
473.66	4.834
473.86	6.044
474.06	4.784
474.26	6.063
474.46	4.352
474.66	5.847
474.86	5.194
475.06	5.632
475.26	4.805
475.46	5.157
475.66	4.329
475.86	5.232
476.06	5.907
476.26	5.709
476.46	5.133
476.66	5.677
476.86	5.065
477.06	5.337
477.26	5.379
477.46	5.185
477.65	5.631
477.85	5.870
478.05	5.022
