SpectraSuite Data File
++++++++++++++++++++++++++++++++++++
Date: Tue Sep 24 03:32:35 EST 2019
User: sgrac
Dark Spectrum Present: Yes
Reference Spectrum Present: Yes
Number of Sampled Component Spectra: 1
Spectrometers: USB4E01596
Integration Time (usec): 100000 (USB4E01596)
Spectra Averaged: 3 (USB4E01596)
Boxcar Smoothing: 0 (USB4E01596)
Correct for Electrical Dark: No (USB4E01596)
Strobe/Lamp Enabled: Yes (USB4E01596)
Correct for Detector Non-linearity: No (USB4E01596)
Correct for Stray Light: No (USB4E01596)
Number of Pixels in Processed Spectrum: 3648
>>>>>Begin Processed Spectral Data<<<<<
178.44	1450.000
178.66	1450.000
178.87	1450.000
179.09	698.113
179.30	702.222
179.52	-1423.333
179.74	790.566
179.95	646.269
180.17	-18100.000
180.38	-13733.333
180.60	478.652
180.82	-3300.000
181.03	1113.514
181.25	-1786.957
181.46	608.333
181.68	4022.222
181.89	-1704.167
182.11	683.333
182.33	1342.857
182.54	794.737
182.76	-780.000
182.97	290.683
183.19	1022.222
183.40	4911.111
183.62	463.415
183.84	664.000
184.05	858.696
184.27	502.469
184.48	-1872.222
184.70	494.624
184.91	553.947
185.13	576.316
185.34	489.247
185.56	1275.000
185.78	1562.500
185.99	2150.000
186.21	422.500
186.42	916.667
186.64	423.656
186.85	804.167
187.07	-4040.000
187.28	-1476.471
187.50	-40100.000
187.72	38800.000
187.93	-1837.500
188.15	941.860
188.36	632.432
188.58	618.919
188.79	-5914.286
189.01	-3500.000
189.22	1648.000
189.44	496.512
189.65	663.636
189.87	-5328.571
190.09	988.235
190.30	1152.632
190.52	2276.190
190.73	6283.333
190.95	1084.211
191.16	454.430
191.38	3654.545
191.59	2642.857
191.81	1208.824
192.02	1004.255
192.24	834.694
192.45	2170.588
192.67	454.545
192.88	468.367
193.10	637.879
193.31	479.798
193.53	1068.421
193.74	-33700.000
193.96	712.676
194.18	411.321
194.39	495.652
194.61	469.444
194.82	388.136
195.04	455.140
195.25	0.000
195.47	-38200.000
195.68	415.000
195.90	467.059
196.11	542.169
196.33	946.512
196.54	400.000
196.76	1066.667
196.97	-3550.000
197.19	536.047
197.40	870.175
197.62	683.019
197.83	428.846
198.05	630.137
198.26	0.000
198.48	-684.444
198.69	1410.000
198.91	5114.286
199.12	-9100.000
199.34	461.111
199.55	-35300.000
199.77	2700.000
199.98	612.676
200.20	359.504
200.41	582.895
200.63	1270.588
200.84	-3023.077
201.06	512.658
201.27	1544.000
201.49	857.447
201.70	550.575
201.91	632.394
202.13	714.925
202.34	-1660.000
202.56	319.014
202.77	4737.500
202.99	6362.500
203.20	705.797
203.42	1070.270
203.63	3925.000
203.85	431.933
204.06	730.769
204.28	372.881
204.49	1363.636
204.71	-1112.500
204.92	341.304
205.14	1335.484
205.35	904.762
205.56	476.190
205.78	-858.000
205.99	1071.795
206.21	821.053
206.42	515.152
206.64	1817.391
206.85	518.072
207.07	-620.968
207.28	1636.000
207.50	540.217
207.71	718.750
207.93	10600.000
208.14	1202.632
208.35	-3075.000
208.57	-1175.862
208.78	316.084
209.00	927.500
209.21	420.792
209.43	-5850.000
209.64	268.750
209.86	678.947
210.07	983.333
210.28	1262.069
210.50	6100.000
210.71	1196.774
210.93	-2253.333
211.14	661.818
211.36	437.500
211.57	1459.259
211.78	4111.111
212.00	-2177.778
212.21	1002.439
212.43	851.786
212.64	545.122
212.86	1765.217
213.07	564.706
213.29	2571.429
213.50	346.825
213.71	589.157
213.93	326.154
214.14	382.906
214.36	436.471
214.57	-3920.000
214.78	1064.103
215.00	392.562
215.21	810.000
215.43	1444.000
215.64	429.630
215.86	400.000
216.07	10400.000
216.28	646.269
216.50	504.902
216.71	1462.069
216.93	-806.977
217.14	486.869
217.35	657.143
217.57	365.812
217.78	567.742
218.00	417.172
218.21	491.549
218.42	1466.667
218.64	2713.333
218.85	862.500
219.07	341.176
219.28	644.615
219.49	391.743
219.71	651.429
219.92	1136.000
220.14	969.565
220.35	3436.364
220.56	790.244
220.78	1154.545
220.99	549.231
221.21	587.838
221.42	562.162
221.63	9125.000
221.85	1450.000
222.06	1108.333
222.28	578.481
222.49	389.247
222.70	400.000
222.92	833.333
223.13	2011.111
223.34	1121.875
223.56	310.236
223.77	267.361
223.99	408.889
224.20	267.123
224.41	528.000
224.63	404.082
224.84	285.000
225.05	354.400
225.27	703.922
225.48	402.020
225.69	366.667
225.91	408.434
226.12	258.673
226.34	249.162
226.55	185.957
226.76	232.632
226.98	209.375
227.19	195.098
227.40	196.970
227.62	166.505
227.83	133.978
228.04	120.181
228.26	113.814
228.47	96.129
228.69	81.837
228.90	70.642
229.11	63.040
229.33	57.462
229.54	50.119
229.75	40.942
229.97	52.443
230.18	44.933
230.39	35.915
230.61	43.184
230.82	45.035
231.03	36.656
231.25	47.770
231.46	56.203
231.67	51.145
231.89	54.657
232.10	49.155
232.31	60.451
232.53	69.268
232.74	68.819
232.95	81.546
233.17	64.161
233.38	63.652
233.59	71.361
233.81	72.945
234.02	78.300
234.23	73.519
234.45	71.292
234.66	61.818
234.87	65.581
235.09	72.657
235.30	65.262
235.51	65.352
235.73	54.038
235.94	54.075
236.15	63.016
236.36	61.457
236.58	57.100
236.79	68.612
237.00	63.543
237.22	65.714
237.43	63.545
237.64	61.500
237.86	50.277
238.07	76.983
238.28	60.593
238.50	55.556
238.71	63.609
238.92	56.101
239.13	65.007
239.35	62.941
239.56	52.789
239.77	61.255
239.99	47.713
240.20	57.799
240.41	50.667
240.63	40.926
240.84	50.766
241.05	39.585
241.26	38.222
241.48	39.791
241.69	30.956
241.90	29.070
242.12	23.106
242.33	23.064
242.54	21.047
242.75	20.347
242.97	20.407
243.18	18.166
243.39	15.731
243.61	17.238
243.82	19.411
244.03	16.840
244.24	17.114
244.46	20.368
244.67	17.893
244.88	19.569
245.09	22.005
245.31	21.532
245.52	23.529
245.73	23.871
245.95	30.437
246.16	19.534
246.37	17.817
246.58	19.075
246.80	17.603
247.01	18.440
247.22	12.173
247.43	13.831
247.65	11.846
247.86	11.438
248.07	10.526
248.28	8.463
248.50	8.516
248.71	11.189
248.92	7.834
249.13	10.485
249.35	9.967
249.56	11.878
249.77	10.818
249.98	11.895
250.20	18.212
250.41	13.462
250.62	18.969
250.83	16.898
251.05	22.295
251.26	22.095
251.47	22.234
251.68	22.198
251.90	19.016
252.11	18.428
252.32	23.314
252.53	20.233
252.75	19.060
252.96	18.222
253.17	16.564
253.38	17.059
253.59	19.943
253.81	20.681
254.02	18.972
254.23	16.250
254.44	20.612
254.66	21.489
254.87	22.180
255.08	27.433
255.29	25.289
255.50	27.723
255.72	25.637
255.93	27.994
256.14	31.638
256.35	26.375
256.57	32.762
256.78	23.452
256.99	25.515
257.20	27.413
257.41	24.905
257.63	26.166
257.84	25.523
258.05	26.116
258.26	15.902
258.47	23.179
258.69	16.237
258.90	15.235
259.11	16.693
259.32	15.620
259.53	10.756
259.75	12.689
259.96	8.421
260.17	10.832
260.38	8.294
260.59	7.635
260.81	7.809
261.02	7.691
261.23	6.556
261.44	7.837
261.65	7.388
261.87	7.348
262.08	7.066
262.29	9.333
262.50	11.630
262.71	10.406
262.92	11.499
263.14	10.358
263.35	12.631
263.56	18.420
263.77	18.289
263.98	18.226
264.20	18.137
264.41	20.422
264.62	16.534
264.83	16.716
265.04	19.361
265.25	15.468
265.47	20.679
265.68	18.130
265.89	20.228
266.10	14.867
266.31	17.055
266.52	15.688
266.74	18.976
266.95	15.616
267.16	16.338
267.37	15.252
267.58	13.692
267.79	13.021
268.01	11.317
268.22	9.553
268.43	12.997
268.64	14.119
268.85	12.370
269.06	11.709
269.27	14.625
269.49	14.221
269.70	12.970
269.91	12.687
270.12	13.026
270.33	15.679
270.54	11.952
270.75	12.745
270.97	12.765
271.18	12.912
271.39	13.424
271.60	13.294
271.81	10.226
272.02	11.024
272.23	11.105
272.45	8.837
272.66	8.480
272.87	10.026
273.08	8.445
273.29	10.675
273.50	7.817
273.71	11.356
273.92	7.934
274.14	10.262
274.35	10.972
274.56	10.029
274.77	9.412
274.98	9.663
275.19	11.949
275.40	11.001
275.61	9.081
275.83	13.037
276.04	11.689
276.25	15.494
276.46	13.307
276.67	14.698
276.88	12.318
277.09	12.518
277.30	13.204
277.51	13.071
277.73	10.501
277.94	13.252
278.15	11.695
278.36	13.487
278.57	10.697
278.78	11.970
278.99	9.313
279.20	13.555
279.41	14.135
279.62	11.895
279.84	10.089
280.05	11.360
280.26	11.835
280.47	13.175
280.68	12.270
280.89	9.570
281.10	13.039
281.31	13.487
281.52	11.411
281.73	10.629
281.94	10.737
282.16	12.145
282.37	10.895
282.58	11.096
282.79	12.444
283.00	9.757
283.21	8.479
283.42	8.572
283.63	10.320
283.84	10.255
284.05	8.574
284.26	10.312
284.47	10.280
284.68	8.216
284.89	6.694
285.11	9.550
285.32	8.580
285.53	10.350
285.74	8.967
285.95	8.153
286.16	7.916
286.37	5.796
286.58	8.538
286.79	6.452
287.00	7.476
287.21	8.070
287.42	8.639
287.63	6.434
287.84	7.356
288.05	8.812
288.26	7.580
288.48	7.951
288.69	7.304
288.90	10.292
289.11	9.022
289.32	7.028
289.53	7.889
289.74	8.444
289.95	9.116
290.16	8.575
290.37	6.574
290.58	8.340
290.79	6.146
291.00	6.392
291.21	7.107
291.42	7.481
291.63	7.601
291.84	7.603
292.05	8.460
292.26	7.095
292.47	7.968
292.68	7.621
292.89	7.526
293.10	7.732
293.31	8.164
293.52	7.830
293.73	8.526
293.94	9.885
294.15	9.667
294.36	9.691
294.57	8.433
294.79	8.989
295.00	7.622
295.21	9.404
295.42	7.088
295.63	9.137
295.84	7.475
296.05	7.901
296.26	7.127
296.47	7.186
296.68	6.337
296.89	8.186
297.10	6.628
297.31	7.964
297.52	6.599
297.73	6.180
297.94	6.012
298.15	6.173
298.36	5.357
298.57	5.586
298.78	6.508
298.99	6.612
299.20	5.660
299.41	6.832
299.62	6.926
299.83	7.081
300.04	7.084
300.25	6.944
300.46	8.827
300.67	7.970
300.88	6.872
301.09	6.238
301.30	9.160
301.50	5.840
301.71	8.281
301.92	9.490
302.13	8.773
302.34	7.412
302.55	8.933
302.76	7.572
302.97	7.852
303.18	9.486
303.39	9.342
303.60	9.802
303.81	9.812
304.02	8.372
304.23	8.210
304.44	8.352
304.65	8.838
304.86	6.671
305.07	6.731
305.28	8.073
305.49	7.032
305.70	9.161
305.91	8.198
306.12	7.660
306.33	7.458
306.54	8.158
306.75	8.848
306.96	10.153
307.17	6.684
307.38	9.506
307.58	8.677
307.79	9.349
308.00	9.104
308.21	10.823
308.42	7.984
308.63	7.038
308.84	8.446
309.05	8.004
309.26	5.994
309.47	6.490
309.68	8.260
309.89	9.047
310.10	7.935
310.31	6.957
310.52	7.731
310.73	8.046
310.94	5.836
311.14	6.942
311.35	5.246
311.56	6.955
311.77	5.718
311.98	5.062
312.19	5.804
312.40	6.275
312.61	4.867
312.82	6.984
313.03	6.390
313.24	8.011
313.45	7.337
313.66	7.736
313.86	7.939
314.07	7.745
314.28	8.096
314.49	7.489
314.70	6.782
314.91	8.218
315.12	8.242
315.33	7.208
315.54	7.563
315.75	7.682
315.96	7.694
316.16	7.682
316.37	9.769
316.58	8.208
316.79	9.290
317.00	8.128
317.21	9.421
317.42	9.270
317.63	10.121
317.84	9.570
318.05	8.932
318.25	7.369
318.46	6.986
318.67	8.260
318.88	8.338
319.09	6.876
319.30	9.990
319.51	8.839
319.72	7.540
319.93	8.438
320.13	7.502
320.34	8.641
320.55	7.117
320.76	9.837
320.97	7.580
321.18	10.509
321.39	8.912
321.60	8.881
321.80	8.729
322.01	9.877
322.22	7.946
322.43	8.569
322.64	7.016
322.85	7.765
323.06	9.336
323.27	7.255
323.47	9.542
323.68	8.442
323.89	7.698
324.10	8.571
324.31	7.582
324.52	7.467
324.73	7.898
324.93	7.313
325.14	6.224
325.35	8.141
325.56	7.999
325.77	8.452
325.98	8.702
326.19	7.661
326.39	6.366
326.60	6.286
326.81	7.950
327.02	7.892
327.23	7.846
327.44	7.914
327.64	5.768
327.85	7.579
328.06	6.658
328.27	8.615
328.48	8.240
328.69	7.927
328.90	7.253
329.10	8.972
329.31	8.250
329.52	8.547
329.73	8.252
329.94	7.739
330.15	7.166
330.35	8.530
330.56	8.688
330.77	8.188
330.98	7.319
331.19	7.982
331.39	8.459
331.60	9.542
331.81	7.094
332.02	7.798
332.23	8.987
332.44	7.827
332.64	7.824
332.85	8.022
333.06	7.550
333.27	8.275
333.48	6.425
333.68	5.498
333.89	7.903
334.10	6.086
334.31	7.373
334.52	8.637
334.72	7.850
334.93	6.791
335.14	6.101
335.35	7.659
335.56	7.502
335.76	7.420
335.97	9.489
336.18	6.696
336.39	7.457
336.60	7.227
336.80	6.898
337.01	7.997
337.22	6.401
337.43	8.343
337.64	7.144
337.84	7.868
338.05	6.931
338.26	8.260
338.47	6.874
338.68	6.507
338.88	7.244
339.09	7.026
339.30	7.111
339.51	6.225
339.71	6.932
339.92	6.788
340.13	7.034
340.34	6.607
340.55	7.160
340.75	6.658
340.96	7.366
341.17	8.141
341.38	6.167
341.58	7.610
341.79	7.271
342.00	6.359
342.21	7.264
342.41	7.303
342.62	6.976
342.83	8.333
343.04	7.418
343.24	5.651
343.45	6.528
343.66	6.174
343.87	5.339
344.07	5.618
344.28	6.496
344.49	6.644
344.70	6.009
344.90	6.687
345.11	5.599
345.32	5.569
345.53	6.916
345.73	5.583
345.94	6.408
346.15	6.126
346.36	4.874
346.56	6.443
346.77	5.472
346.98	6.808
347.19	5.493
347.39	4.884
347.60	5.179
347.81	5.809
348.02	7.811
348.22	5.944
348.43	6.772
348.64	6.950
348.84	5.082
349.05	5.552
349.26	7.409
349.47	5.074
349.67	7.114
349.88	6.545
350.09	6.851
350.30	7.927
350.50	5.965
350.71	5.864
350.92	5.505
351.12	6.228
351.33	5.832
351.54	6.490
351.74	5.764
351.95	5.195
352.16	6.214
352.37	6.439
352.57	6.083
352.78	6.551
352.99	5.920
353.19	7.717
353.40	5.770
353.61	6.492
353.82	6.047
354.02	6.945
354.23	6.700
354.44	5.969
354.64	7.461
354.85	5.817
355.06	5.347
355.26	4.864
355.47	6.404
355.68	7.096
355.88	5.983
356.09	5.305
356.30	5.022
356.51	5.807
356.71	5.367
356.92	4.796
357.13	6.590
357.33	6.849
357.54	4.905
357.75	5.345
357.95	4.747
358.16	5.468
358.37	6.625
358.57	5.059
358.78	4.899
358.99	5.318
359.19	4.620
359.40	6.642
359.61	4.856
359.81	6.297
360.02	5.429
360.23	4.915
360.43	5.291
360.64	5.645
360.85	5.265
361.05	4.703
361.26	5.098
361.47	5.486
361.67	4.560
361.88	4.063
362.09	4.666
362.29	4.158
362.50	3.835
362.70	3.411
362.91	5.072
363.12	3.956
363.32	3.441
363.53	4.165
363.74	4.301
363.94	3.638
364.15	4.159
364.36	5.921
364.56	4.137
364.77	5.669
364.98	6.321
365.18	5.214
365.39	5.754
365.59	5.337
365.80	4.746
366.01	5.961
366.21	5.437
366.42	5.323
366.63	5.995
366.83	5.168
367.04	4.219
367.24	5.242
367.45	4.374
367.66	4.424
367.86	5.901
368.07	4.774
368.28	4.978
368.48	5.048
368.69	5.019
368.89	6.153
369.10	5.531
369.31	5.589
369.51	5.773
369.72	6.141
369.92	7.099
370.13	5.962
370.34	5.010
370.54	4.421
370.75	5.379
370.95	5.119
371.16	4.574
371.37	4.841
371.57	5.328
371.78	5.394
371.98	6.119
372.19	4.686
372.40	4.767
372.60	5.971
372.81	4.869
373.01	4.775
373.22	4.755
373.43	5.950
373.63	4.733
373.84	4.972
374.04	4.459
374.25	5.229
374.46	4.954
374.66	6.203
374.87	5.566
375.07	4.604
375.28	4.480
375.48	5.714
375.69	5.700
375.90	4.569
376.10	4.303
376.31	5.094
376.51	5.260
376.72	4.769
376.92	3.764
377.13	4.807
377.34	5.174
377.54	4.946
377.75	5.166
377.95	4.927
378.16	4.849
378.36	5.634
378.57	5.459
378.77	4.615
378.98	4.919
379.19	5.248
379.39	4.092
379.60	5.006
379.80	4.371
380.01	5.386
380.21	4.972
380.42	5.904
380.62	4.407
380.83	4.920
381.04	4.821
381.24	5.453
381.45	5.248
381.65	4.762
381.86	4.941
382.06	6.543
382.27	4.939
382.47	5.202
382.68	6.116
382.88	5.464
383.09	5.750
383.29	5.717
383.50	6.805
383.71	5.052
383.91	5.109
384.12	5.307
384.32	5.543
384.53	5.490
384.73	5.124
384.94	4.720
385.14	5.457
385.35	5.021
385.55	5.697
385.76	5.556
385.96	5.426
386.17	5.771
386.37	5.911
386.58	5.388
386.78	7.015
386.99	4.859
387.19	6.127
387.40	4.942
387.60	7.374
387.81	6.820
388.01	5.899
388.22	6.390
388.42	7.640
388.63	8.475
388.83	7.779
389.04	6.179
389.24	6.717
389.45	7.230
389.65	6.513
389.86	7.883
390.06	6.572
390.27	6.272
390.47	6.759
390.68	6.678
390.88	8.945
391.09	8.400
391.29	8.740
391.50	8.219
391.70	8.737
391.91	6.967
392.11	8.285
392.32	8.784
392.52	9.561
392.73	8.923
392.93	9.251
393.14	9.084
393.34	9.235
393.55	9.694
393.75	9.499
393.95	8.755
394.16	10.880
394.36	10.546
394.57	11.346
394.77	10.428
394.98	10.402
395.18	11.026
395.39	9.892
395.59	10.758
395.80	10.544
396.00	10.579
396.21	11.860
396.41	10.134
396.61	12.250
396.82	11.282
397.02	12.974
397.23	12.139
397.43	10.975
397.64	9.972
397.84	12.589
398.05	9.858
398.25	12.405
398.45	11.297
398.66	12.857
398.86	11.999
399.07	12.577
399.27	11.928
399.48	13.999
399.68	11.739
399.89	12.816
400.09	13.385
400.29	12.614
400.50	12.759
400.70	13.025
400.91	12.465
401.11	12.717
401.32	13.186
401.52	11.896
401.72	12.021
401.93	15.073
402.13	12.892
402.34	12.289
402.54	11.775
402.75	14.588
402.95	9.990
403.15	13.898
403.36	11.232
403.56	13.832
403.77	11.641
403.97	12.748
404.17	12.280
404.38	13.791
404.58	11.587
404.79	13.417
404.99	12.533
405.19	12.811
405.40	12.829
405.60	13.721
405.81	12.262
406.01	13.438
406.21	13.066
406.42	13.834
406.62	13.241
406.83	14.602
407.03	13.658
407.23	13.293
407.44	12.670
407.64	13.818
407.85	13.149
408.05	13.830
408.25	13.666
408.46	13.892
408.66	13.675
408.87	12.648
409.07	12.840
409.27	12.512
409.48	13.152
409.68	13.904
409.88	11.347
410.09	12.740
410.29	12.980
410.50	14.661
410.70	11.798
410.90	13.293
411.11	12.027
411.31	12.494
411.51	13.657
411.72	13.639
411.92	11.956
412.12	12.644
412.33	12.267
412.53	12.255
412.74	10.801
412.94	13.573
413.14	12.643
413.35	13.456
413.55	13.019
413.75	13.867
413.96	12.197
414.16	12.873
414.36	12.290
414.57	12.657
414.77	12.092
414.97	12.853
415.18	12.040
415.38	12.804
415.58	12.399
415.79	12.014
415.99	11.838
416.19	13.306
416.40	11.820
416.60	13.159
416.80	11.674
417.01	12.710
417.21	11.052
417.41	12.815
417.62	12.054
417.82	12.630
418.02	11.577
418.23	12.918
418.43	12.233
418.63	12.833
418.84	12.518
419.04	12.020
419.24	12.796
419.45	12.775
419.65	12.647
419.85	12.524
420.06	12.800
420.26	12.564
420.46	12.500
420.67	12.939
420.87	12.595
421.07	12.413
421.28	12.544
421.48	12.665
421.68	12.554
421.88	12.637
422.09	12.490
422.29	12.530
422.49	12.479
422.70	12.930
422.90	12.648
423.10	12.622
423.31	12.619
423.51	12.785
423.71	12.608
423.91	12.602
424.12	12.659
424.32	12.693
424.52	12.532
424.73	12.196
424.93	12.564
425.13	12.171
425.33	12.184
425.54	12.451
425.74	12.620
425.94	12.789
426.15	12.508
426.35	12.418
426.55	13.293
426.75	12.723
426.96	12.327
427.16	12.829
427.36	12.562
427.57	13.397
427.77	12.582
427.97	12.657
428.17	12.360
428.38	12.750
428.58	11.440
428.78	13.237
428.98	12.231
429.19	12.606
429.39	11.516
429.59	12.305
429.79	11.142
430.00	11.272
430.20	10.942
430.40	12.064
430.60	11.597
430.81	11.394
431.01	11.588
431.21	12.380
431.41	11.738
431.62	11.800
431.82	11.582
432.02	12.216
432.22	11.586
432.43	10.816
432.63	10.578
432.83	11.582
433.03	10.874
433.24	11.186
433.44	11.561
433.64	11.732
433.84	11.781
434.05	12.062
434.25	11.353
434.45	12.266
434.65	12.597
434.85	12.382
435.06	12.223
435.26	12.261
435.46	11.934
435.66	12.383
435.87	11.762
436.07	12.734
436.27	12.087
436.47	12.556
436.67	12.184
436.88	12.939
437.08	12.316
437.28	12.101
437.48	12.057
437.69	12.187
437.89	11.877
438.09	12.195
438.29	11.572
438.49	12.380
438.70	11.992
438.90	11.922
439.10	11.663
439.30	11.850
439.50	11.150
439.71	12.296
439.91	11.868
440.11	12.836
440.31	11.638
440.51	11.858
440.72	11.673
440.92	12.035
441.12	12.354
441.32	12.472
441.52	12.141
441.72	12.290
441.93	12.537
442.13	12.408
442.33	12.567
442.53	13.235
442.73	12.037
442.94	12.526
443.14	12.747
443.34	12.548
443.54	12.844
443.74	12.794
443.94	12.588
444.15	12.341
444.35	12.194
444.55	12.480
444.75	12.098
444.95	12.345
445.15	12.359
445.36	12.235
445.56	11.894
445.76	12.428
445.96	11.926
446.16	11.772
446.36	11.893
446.57	12.439
446.77	11.840
446.97	12.225
447.17	12.982
447.37	12.339
447.57	12.462
447.77	12.380
447.98	12.578
448.18	12.669
448.38	12.449
448.58	12.642
448.78	13.021
448.98	12.583
449.18	12.546
449.39	12.937
449.59	12.568
449.79	12.821
449.99	12.594
450.19	13.032
450.39	12.280
450.59	12.725
450.79	12.570
451.00	13.234
451.20	13.828
451.40	12.413
451.60	11.914
451.80	13.177
452.00	12.304
452.20	13.085
452.40	12.222
452.61	12.485
452.81	11.993
453.01	12.989
453.21	11.984
453.41	12.461
453.61	11.952
453.81	12.651
454.01	12.600
454.21	12.557
454.42	12.962
454.62	12.654
454.82	12.074
455.02	12.566
455.22	12.075
455.42	12.967
455.62	11.525
455.82	12.146
456.02	12.130
456.23	11.881
456.43	12.283
456.63	12.363
456.83	11.565
457.03	12.303
457.23	12.339
457.43	12.806
457.63	11.917
457.83	12.715
458.03	11.553
458.23	11.940
458.43	11.762
458.64	12.008
458.84	11.870
459.04	12.248
459.24	11.730
459.44	11.740
459.64	12.064
459.84	12.040
460.04	11.883
460.24	11.869
460.44	12.336
460.64	12.502
460.84	12.235
461.04	12.327
461.24	12.679
461.45	12.568
461.65	12.597
461.85	12.396
462.05	12.850
462.25	12.743
462.45	13.388
462.65	12.603
462.85	12.353
463.05	12.801
463.25	12.012
463.45	12.897
463.65	12.251
463.85	12.426
464.05	12.341
464.25	12.650
464.45	12.852
464.65	12.145
464.85	11.928
465.05	11.822
465.26	12.145
465.46	12.713
465.66	12.590
465.86	12.625
466.06	12.451
466.26	12.222
466.46	11.690
466.66	11.933
466.86	12.214
467.06	12.201
467.26	11.842
467.46	12.440
467.66	11.882
467.86	12.192
468.06	11.944
468.26	11.870
468.46	12.169
468.66	12.525
468.86	11.814
469.06	12.863
469.26	11.933
469.46	12.517
469.66	12.254
