SpectraSuite Data File
++++++++++++++++++++++++++++++++++++
Date: Tue Sep 24 03:39:26 EST 2019
User: sgrac
Dark Spectrum Present: Yes
Reference Spectrum Present: Yes
Number of Sampled Component Spectra: 1
Spectrometers: USB4E01596
Integration Time (usec): 100000 (USB4E01596)
Spectra Averaged: 3 (USB4E01596)
Boxcar Smoothing: 0 (USB4E01596)
Correct for Electrical Dark: No (USB4E01596)
Strobe/Lamp Enabled: Yes (USB4E01596)
Correct for Detector Non-linearity: No (USB4E01596)
Correct for Stray Light: No (USB4E01596)
Number of Pixels in Processed Spectrum: 3648
>>>>>Begin Processed Spectral Data<<<<<
178.44	1550.000
178.66	1550.000
178.87	1550.000
179.09	733.962
179.30	684.444
179.52	-1440.000
179.74	847.170
179.95	677.612
180.17	-16200.000
180.38	-13200.000
180.60	488.764
180.82	-3414.286
181.03	1005.405
181.25	-1739.130
181.46	529.167
181.68	4211.111
181.89	-1825.000
182.11	663.636
182.33	1297.143
182.54	775.439
182.76	-865.000
182.97	300.621
183.19	897.778
183.40	4344.444
183.62	541.463
183.84	626.667
184.05	906.522
184.27	475.309
184.48	-2277.778
184.70	465.591
184.91	548.684
185.13	611.842
185.34	529.032
185.56	1109.375
185.78	1537.500
185.99	2068.750
186.21	546.250
186.42	778.571
186.64	500.000
186.85	870.833
187.07	-3940.000
187.28	-1858.824
187.50	-39500.000
187.72	42200.000
187.93	-1866.667
188.15	1109.302
188.36	632.432
188.58	609.459
188.79	-5328.571
189.01	-3400.000
189.22	1880.000
189.44	509.302
189.65	586.364
189.87	-6071.429
190.09	870.588
190.30	1221.053
190.52	2176.190
190.73	5750.000
190.95	1005.263
191.16	535.443
191.38	3809.091
191.59	3092.857
191.81	1338.235
192.02	1114.894
192.24	832.653
192.45	2176.471
192.67	528.571
192.88	520.408
193.10	603.030
193.31	455.556
193.53	1028.947
193.74	-34800.000
193.96	669.014
194.18	421.698
194.39	455.435
194.61	478.704
194.82	355.932
195.04	459.813
195.25	0.000
195.47	-41200.000
195.68	498.000
195.90	512.941
196.11	577.108
196.33	837.209
196.54	441.284
196.76	1248.485
196.97	-3308.333
197.19	552.326
197.40	852.632
197.62	805.660
197.83	421.154
198.05	661.644
198.26	0.000
198.48	-722.222
198.69	1396.667
198.91	5528.571
199.12	-9925.000
199.34	496.667
199.55	-35800.000
199.77	2450.000
199.98	715.493
200.20	345.455
200.41	630.263
200.63	1308.824
200.84	-3430.769
201.06	489.873
201.27	1464.000
201.49	1025.532
201.70	555.172
201.91	701.408
202.13	661.194
202.34	-1676.000
202.56	326.761
202.77	4850.000
202.99	6112.500
203.20	611.594
203.42	1151.351
203.63	4787.500
203.85	433.613
204.06	776.923
204.28	366.949
204.49	1348.485
204.71	-1090.625
204.92	354.348
205.14	1393.548
205.35	902.381
205.56	449.524
205.78	-986.000
205.99	1035.897
206.21	745.614
206.42	683.333
206.64	1782.609
206.85	548.193
207.07	-653.226
207.28	1552.000
207.50	523.913
207.71	881.250
207.93	13000.000
208.14	1297.368
208.35	-2783.333
208.57	-1137.931
208.78	310.490
209.00	992.500
209.21	423.762
209.43	-6250.000
209.64	281.250
209.86	680.702
210.07	952.381
210.28	1296.552
210.50	7066.667
210.71	1280.645
210.93	-2693.333
211.14	714.545
211.36	438.542
211.57	1700.000
211.78	5077.778
212.00	-2455.556
212.21	1112.195
212.43	905.357
212.64	518.293
212.86	1952.174
213.07	660.294
213.29	2600.000
213.50	272.222
213.71	587.952
213.93	340.769
214.14	405.128
214.36	472.941
214.57	-4390.000
214.78	1215.385
215.00	452.066
215.21	927.500
215.43	1580.000
215.64	431.481
215.86	420.755
216.07	9650.000
216.28	683.582
216.50	430.392
216.71	1475.862
216.93	-958.140
217.14	448.485
217.35	753.571
217.57	419.658
217.78	662.903
218.00	476.768
218.21	498.592
218.42	1659.259
218.64	2680.000
218.85	816.071
219.07	360.504
219.28	601.538
219.49	456.881
219.71	700.000
219.92	1116.000
220.14	813.043
220.35	3572.727
220.56	1017.073
220.78	1000.000
220.99	564.615
221.21	691.892
221.42	574.324
221.63	9025.000
221.85	1635.714
222.06	1287.500
222.28	529.114
222.49	384.946
222.70	448.000
222.92	761.404
223.13	1833.333
223.34	1221.875
223.56	333.071
223.77	315.972
223.99	495.556
224.20	278.767
224.41	538.667
224.63	465.306
224.84	294.286
225.05	357.600
225.27	749.020
225.48	392.929
225.69	393.750
225.91	512.048
226.12	273.469
226.34	244.693
226.55	196.170
226.76	228.421
226.98	256.875
227.19	189.216
227.40	198.701
227.62	193.689
227.83	134.807
228.04	134.036
228.26	128.228
228.47	102.366
228.69	72.857
228.90	59.633
229.11	59.165
229.33	67.364
229.54	58.950
229.75	49.529
229.97	46.365
230.18	44.012
230.39	33.199
230.61	35.692
230.82	46.941
231.03	44.802
231.25	52.465
231.46	46.774
231.67	56.234
231.89	59.191
232.10	58.310
232.31	62.233
232.53	62.580
232.74	77.953
232.95	75.710
233.17	79.895
233.38	65.997
233.59	72.627
233.81	71.404
234.02	85.172
234.23	61.150
234.45	78.947
234.66	71.091
234.87	69.302
235.09	73.272
235.30	67.297
235.51	68.439
235.73	62.849
235.94	60.031
236.15	71.746
236.36	70.865
236.58	61.734
236.79	59.464
237.00	58.565
237.22	65.556
237.43	59.222
237.64	59.167
237.86	65.097
238.07	81.026
238.28	69.185
238.50	52.249
238.71	70.526
238.92	57.784
239.13	60.740
239.35	67.500
239.56	62.449
239.77	66.849
239.99	52.781
240.20	48.489
240.41	53.576
240.63	48.843
240.84	49.706
241.05	47.031
241.26	39.911
241.48	42.224
241.69	37.069
241.90	29.302
242.12	28.598
242.33	24.568
242.54	22.246
242.75	21.782
242.97	24.195
243.18	20.837
243.39	16.428
243.61	21.940
243.82	17.877
244.03	15.676
244.24	18.121
244.46	21.551
244.67	22.508
244.88	19.569
245.09	23.536
245.31	21.143
245.52	21.990
245.73	28.500
245.95	37.250
246.16	25.831
246.37	19.432
246.58	21.459
246.80	20.261
247.01	17.529
247.22	14.487
247.43	12.760
247.65	13.838
247.86	11.903
248.07	11.234
248.28	9.526
248.50	10.119
248.71	11.529
248.92	8.389
249.13	12.379
249.35	9.087
249.56	12.889
249.77	12.579
249.98	10.800
250.20	18.113
250.41	15.155
250.62	19.331
250.83	19.982
251.05	19.944
251.26	23.833
251.47	21.818
251.68	24.351
251.90	20.546
252.11	23.409
252.32	24.621
252.53	20.768
252.75	20.070
252.96	20.478
253.17	18.789
253.38	17.885
253.59	21.128
253.81	18.789
254.02	16.879
254.23	19.038
254.44	21.063
254.66	23.777
254.87	19.794
255.08	28.136
255.29	28.241
255.50	30.099
255.72	27.223
255.93	35.268
256.14	32.839
256.35	22.381
256.57	30.569
256.78	28.740
256.99	23.787
257.20	29.692
257.41	24.464
257.63	25.662
257.84	21.279
258.05	28.485
258.26	20.224
258.47	19.460
258.69	16.518
258.90	17.264
259.11	18.874
259.32	13.729
259.53	14.329
259.75	13.517
259.96	10.706
260.17	10.551
260.38	10.182
260.59	8.804
260.81	8.171
261.02	8.209
261.23	7.080
261.44	8.025
261.65	8.454
261.87	8.051
262.08	7.643
262.29	9.896
262.50	10.983
262.71	11.472
262.92	11.728
263.14	11.833
263.35	13.711
263.56	19.102
263.77	16.673
263.98	17.583
264.20	21.128
264.41	17.337
264.62	17.204
264.83	18.852
265.04	20.782
265.25	15.558
265.47	19.231
265.68	20.688
265.89	21.449
266.10	13.540
266.31	19.121
266.52	16.550
266.74	18.044
266.95	14.442
267.16	16.118
267.37	17.460
267.58	16.677
267.79	14.760
268.01	12.355
268.22	13.058
268.43	14.281
268.64	13.701
268.85	14.778
269.06	11.159
269.27	16.250
269.49	13.434
269.70	12.354
269.91	13.531
270.12	14.989
270.33	15.938
270.54	15.289
270.75	13.756
270.97	11.343
271.18	12.332
271.39	11.620
271.60	11.995
271.81	10.526
272.02	12.197
272.23	11.917
272.45	11.084
272.66	9.290
272.87	11.710
273.08	7.937
273.29	11.491
273.50	11.026
273.71	10.956
273.92	8.833
274.14	8.964
274.35	11.218
274.56	10.979
274.77	9.975
274.98	10.166
275.19	13.316
275.40	9.559
275.61	11.378
275.83	14.442
276.04	12.751
276.25	15.722
276.46	13.307
276.67	16.200
276.88	12.118
277.09	12.859
277.30	12.721
277.51	14.035
277.73	11.810
277.94	12.726
278.15	13.994
278.36	14.069
278.57	12.038
278.78	13.843
278.99	11.613
279.20	15.321
279.41	15.369
279.62	11.926
279.84	11.632
280.05	12.407
280.26	11.635
280.47	12.849
280.68	12.644
280.89	11.873
281.10	13.233
281.31	15.613
281.52	11.014
281.73	10.917
281.94	11.103
282.16	11.880
282.37	11.623
282.58	12.743
282.79	11.924
283.00	10.652
283.21	8.184
283.42	8.780
283.63	11.043
283.84	9.991
284.05	10.418
284.26	9.144
284.47	10.814
284.68	10.969
284.89	8.373
285.11	9.989
285.32	11.031
285.53	11.267
285.74	9.513
285.95	8.229
286.16	9.128
286.37	7.289
286.58	8.645
286.79	8.073
287.00	8.691
287.21	8.245
287.42	9.267
287.63	6.771
287.84	8.105
288.05	9.607
288.26	8.890
288.48	9.776
288.69	7.462
288.90	9.259
289.11	9.783
289.32	8.742
289.53	8.545
289.74	7.813
289.95	10.260
290.16	9.319
290.37	8.118
290.58	9.194
290.79	7.855
291.00	8.817
291.21	9.434
291.42	9.094
291.63	7.972
291.84	9.309
292.05	9.091
292.26	7.911
292.47	9.120
292.68	7.877
292.89	9.127
293.10	9.494
293.31	9.810
293.52	8.618
293.73	9.614
293.94	10.084
294.15	10.139
294.36	10.799
294.57	10.259
294.79	10.147
295.00	8.804
295.21	9.466
295.42	8.909
295.63	10.437
295.84	8.332
296.05	8.477
296.26	7.146
296.47	8.277
296.68	7.792
296.89	8.238
297.10	8.616
297.31	8.920
297.52	7.260
297.73	7.100
297.94	6.744
298.15	5.872
298.36	6.683
298.57	6.376
298.78	6.330
298.99	6.995
299.20	6.431
299.41	6.976
299.62	7.807
299.83	6.614
300.04	7.617
300.25	8.560
300.46	8.524
300.67	10.323
300.88	8.390
301.09	7.361
301.30	10.862
301.50	6.315
301.71	10.016
301.92	10.564
302.13	8.465
302.34	6.890
302.55	9.189
302.76	8.403
302.97	9.325
303.18	9.506
303.39	9.419
303.60	9.016
303.81	11.306
304.02	8.810
304.23	9.713
304.44	7.637
304.65	8.936
304.86	8.109
305.07	8.719
305.28	7.618
305.49	8.662
305.70	10.346
305.91	9.261
306.12	9.252
306.33	8.422
306.54	8.611
306.75	8.599
306.96	10.381
307.17	8.016
307.38	9.423
307.58	8.568
307.79	9.891
308.00	9.126
308.21	10.947
308.42	8.361
308.63	8.253
308.84	9.900
309.05	8.838
309.26	7.806
309.47	8.322
309.68	8.022
309.89	9.030
310.10	8.317
310.31	7.502
310.52	7.329
310.73	8.904
310.94	6.752
311.14	7.632
311.35	7.926
311.56	8.107
311.77	7.066
311.98	5.234
312.19	6.738
312.40	7.766
312.61	5.943
312.82	8.578
313.03	7.622
313.24	7.531
313.45	8.010
313.66	8.422
313.86	8.864
314.07	7.546
314.28	9.040
314.49	8.586
314.70	8.979
314.91	9.796
315.12	8.357
315.33	9.326
315.54	7.880
315.75	7.430
315.96	7.946
316.16	7.682
316.37	9.004
316.58	8.671
316.79	8.283
317.00	9.750
317.21	11.005
317.42	10.648
317.63	11.386
317.84	9.051
318.05	9.070
318.25	8.910
318.46	9.610
318.67	8.923
318.88	10.167
319.09	10.152
319.30	10.613
319.51	10.611
319.72	8.508
319.93	9.577
320.13	7.703
320.34	9.858
320.55	9.361
320.76	9.731
320.97	8.916
321.18	10.841
321.39	9.187
321.60	10.670
321.80	10.307
322.01	10.390
322.22	9.845
322.43	8.482
322.64	9.036
322.85	7.914
323.06	10.944
323.27	8.641
323.47	9.728
323.68	9.725
323.89	7.935
324.10	10.178
324.31	8.250
324.52	9.458
324.73	9.752
324.93	7.242
325.14	7.632
325.35	9.609
325.56	8.767
325.77	8.955
325.98	8.227
326.19	8.466
326.39	6.487
326.60	7.788
326.81	6.748
327.02	8.895
327.23	7.329
327.44	8.715
327.64	6.151
327.85	9.344
328.06	7.657
328.27	9.531
328.48	8.064
328.69	7.873
328.90	8.018
329.10	9.046
329.31	10.874
329.52	9.029
329.73	8.730
329.94	7.700
330.15	8.557
330.35	9.387
330.56	11.002
330.77	7.055
330.98	9.772
331.19	10.470
331.39	10.423
331.60	8.936
331.81	7.485
332.02	8.637
332.23	9.861
332.44	8.851
332.64	9.325
332.85	8.564
333.06	7.073
333.27	8.293
333.48	6.606
333.68	7.833
333.89	9.264
334.10	7.350
334.31	8.364
334.52	8.445
334.72	7.511
334.93	9.245
335.14	6.972
335.35	8.861
335.56	9.258
335.76	7.261
335.97	8.878
336.18	6.203
336.39	7.065
336.60	8.869
336.80	7.430
337.01	8.624
337.22	7.294
337.43	8.891
337.64	7.787
337.84	8.226
338.05	8.275
338.26	9.400
338.47	7.640
338.68	6.738
338.88	8.473
339.09	6.539
339.30	6.743
339.51	7.263
339.71	7.852
339.92	6.021
340.13	7.050
340.34	7.347
340.55	7.075
340.75	7.109
340.96	7.333
341.17	8.411
341.38	7.844
341.58	9.161
341.79	6.739
342.00	6.677
342.21	7.264
342.41	6.730
342.62	6.819
342.83	8.019
343.04	6.687
343.24	6.415
343.45	6.402
343.66	7.323
343.87	6.990
344.07	7.392
344.28	6.559
344.49	7.642
344.70	7.778
344.90	6.243
345.11	6.672
345.32	7.094
345.53	7.248
345.73	6.979
345.94	7.093
346.15	7.024
346.36	5.810
346.56	6.360
346.77	5.773
346.98	7.535
347.19	7.071
347.39	5.659
347.60	6.075
347.81	6.263
348.02	8.247
348.22	6.520
348.43	7.032
348.64	8.016
348.84	6.333
349.05	7.418
349.26	7.671
349.47	5.696
349.67	7.145
349.88	7.388
350.09	7.490
350.30	8.608
350.50	7.193
350.71	6.570
350.92	6.552
351.12	6.971
351.33	6.935
351.54	7.564
351.74	6.642
351.95	6.288
352.16	6.387
352.37	7.873
352.57	6.497
352.78	7.130
352.99	7.261
353.19	7.836
353.40	6.345
353.61	7.255
353.82	6.744
354.02	6.901
354.23	6.360
354.44	7.581
354.64	7.322
354.85	6.912
355.06	6.227
355.26	5.523
355.47	6.816
355.68	7.636
355.88	6.225
356.09	5.882
356.30	5.589
356.51	6.179
356.71	6.875
356.92	4.537
357.13	6.740
357.33	6.824
357.54	5.327
357.75	5.774
357.95	5.861
358.16	5.723
358.37	6.357
358.57	5.173
358.78	5.710
358.99	5.440
359.19	5.152
359.40	5.940
359.61	5.396
359.81	6.583
360.02	5.867
360.23	6.054
360.43	5.751
360.64	4.922
360.85	5.418
361.05	5.293
361.26	5.927
361.47	5.898
361.67	4.927
361.88	4.269
362.09	4.943
362.29	4.097
362.50	3.685
362.70	3.850
362.91	4.850
363.12	4.318
363.32	3.957
363.53	4.407
363.74	4.002
363.94	3.838
364.15	5.524
364.36	5.185
364.56	4.546
364.77	6.193
364.98	6.382
365.18	5.611
365.39	6.051
365.59	4.864
365.80	4.964
366.01	5.784
366.21	5.405
366.42	4.813
366.63	5.296
366.83	5.070
367.04	4.344
367.24	5.580
367.45	4.363
367.66	3.968
367.86	5.849
368.07	5.458
368.28	5.232
368.48	4.661
368.69	4.901
368.89	5.852
369.10	5.736
369.31	5.381
369.51	5.840
369.72	5.576
369.92	5.940
370.13	5.004
370.34	5.139
370.54	4.608
370.75	4.977
370.95	6.194
371.16	5.256
371.37	5.140
371.57	5.203
371.78	5.343
371.98	5.664
372.19	4.686
372.40	4.836
372.60	5.493
372.81	5.114
373.01	4.440
373.22	4.822
373.43	5.312
373.63	4.742
373.84	4.942
374.04	4.246
374.25	5.239
374.46	5.075
374.66	5.212
374.87	5.739
375.07	4.836
375.28	4.348
375.48	5.026
375.69	5.295
375.90	4.300
376.10	4.622
376.31	4.271
376.51	5.479
376.72	4.778
376.92	4.073
377.13	4.658
377.34	5.245
377.54	4.422
377.75	5.054
377.95	5.006
378.16	5.169
378.36	5.307
378.57	4.078
378.77	4.957
378.98	4.175
379.19	4.347
379.39	3.570
379.60	5.316
379.80	5.199
380.01	5.180
380.21	4.433
380.42	5.347
380.62	4.571
380.83	4.649
381.04	4.208
381.24	5.295
381.45	5.021
381.65	4.601
381.86	4.738
382.06	5.740
382.27	4.026
382.47	5.065
382.68	5.272
382.88	5.509
383.09	4.921
383.29	5.100
383.50	5.670
383.71	4.855
383.91	4.568
384.12	4.604
384.32	4.646
384.53	4.989
384.73	4.232
384.94	3.831
385.14	5.023
385.35	4.734
385.55	4.701
385.76	5.173
385.96	4.081
386.17	4.499
386.37	4.964
386.58	4.773
386.78	6.005
386.99	3.780
387.19	4.624
387.40	4.063
387.60	4.793
387.81	4.293
388.01	4.768
388.22	5.438
388.42	6.597
388.63	6.802
388.83	5.635
389.04	4.394
389.24	4.454
389.45	5.356
389.65	5.178
389.86	5.912
390.06	5.646
390.27	5.066
390.47	5.282
390.68	5.576
390.88	6.643
391.09	6.030
391.29	6.124
391.50	5.626
391.70	5.808
391.91	5.462
392.11	5.514
392.32	6.159
392.52	6.162
392.73	6.391
392.93	6.272
393.14	6.364
393.34	5.800
393.55	7.242
393.75	6.519
393.95	5.635
394.16	7.807
394.36	7.643
394.57	7.293
394.77	7.708
394.98	6.969
395.18	7.537
395.39	7.138
395.59	7.422
395.80	6.717
396.00	7.304
396.21	8.744
396.41	7.171
396.61	8.648
396.82	8.714
397.02	10.036
397.23	9.519
397.43	8.956
397.64	7.502
397.84	9.448
398.05	7.471
398.25	9.529
398.45	8.509
398.66	9.151
398.86	8.826
399.07	10.276
399.27	8.706
399.48	10.486
399.68	9.035
399.89	9.319
400.09	10.331
400.29	9.786
400.50	10.020
400.70	10.500
400.91	9.392
401.11	9.532
401.32	10.781
401.52	9.595
401.72	9.580
401.93	12.166
402.13	10.602
402.34	10.823
402.54	9.610
402.75	12.294
402.95	8.810
403.15	11.641
403.36	9.187
403.56	11.626
403.77	9.939
403.97	10.933
404.17	10.151
404.38	11.538
404.58	9.569
404.79	11.348
404.99	11.139
405.19	10.536
405.40	10.943
405.60	11.632
405.81	10.374
406.01	11.712
406.21	10.843
406.42	11.127
406.62	11.676
406.83	12.245
407.03	11.210
407.23	11.643
407.44	10.740
407.64	12.138
407.85	11.956
408.05	11.791
408.25	11.792
408.46	12.922
408.66	12.411
408.87	12.388
409.07	11.739
409.27	11.962
409.48	12.075
409.68	13.337
409.88	10.280
410.09	11.496
410.29	11.530
410.50	12.989
410.70	10.549
410.90	11.771
411.11	11.093
411.31	11.643
411.51	12.387
411.72	12.585
411.92	10.910
412.12	11.988
412.33	11.273
412.53	11.668
412.74	9.875
412.94	12.243
413.14	11.860
413.35	11.395
413.55	11.519
413.75	13.008
413.96	11.315
414.16	11.879
414.36	11.558
414.57	11.732
414.77	11.461
414.97	12.715
415.18	11.188
415.38	11.840
415.58	11.152
415.79	10.967
415.99	10.814
416.19	12.432
416.40	11.144
416.60	11.541
416.80	10.611
417.01	11.369
417.21	10.760
417.41	11.964
417.62	11.173
417.82	11.619
418.02	10.936
418.23	12.068
418.43	11.672
418.63	12.011
418.84	11.946
419.04	11.422
419.24	11.374
419.45	11.590
419.65	11.865
419.85	11.772
420.06	11.923
420.26	11.787
420.46	11.511
420.67	12.148
420.87	11.543
421.07	11.689
421.28	11.475
421.48	11.863
421.68	11.732
421.88	11.413
422.09	11.422
422.29	11.652
422.49	11.033
422.70	12.107
422.90	11.473
423.10	11.778
423.31	11.799
423.51	12.240
423.71	11.291
423.91	11.485
424.12	11.477
424.32	11.929
424.52	11.464
424.73	11.371
424.93	11.195
425.13	11.406
425.33	11.166
425.54	11.566
425.74	11.549
425.94	12.049
426.15	11.550
426.35	11.736
426.55	11.934
426.75	11.961
426.96	11.653
427.16	12.174
427.36	11.739
427.57	12.028
427.77	11.580
427.97	11.842
428.17	11.641
428.38	12.110
428.58	10.600
428.78	12.579
428.98	11.136
429.19	11.534
429.39	10.741
429.59	11.772
429.79	10.564
430.00	10.509
430.20	10.689
430.40	11.279
430.60	11.328
430.81	11.409
431.01	10.957
431.21	11.463
431.41	10.888
431.62	11.334
431.82	11.123
432.02	12.571
432.22	10.696
432.43	10.765
432.63	10.814
432.83	11.403
433.03	10.823
433.24	11.109
433.44	11.236
433.64	12.133
433.84	10.961
434.05	11.971
434.25	11.453
434.45	12.445
434.65	12.392
434.85	12.371
435.06	12.219
435.26	12.199
435.46	12.045
435.66	12.447
435.87	12.018
436.07	12.434
436.27	12.180
436.47	12.595
436.67	12.245
436.88	13.162
437.08	12.036
437.28	12.515
437.48	12.427
437.69	12.469
437.89	12.395
438.09	12.895
438.29	12.187
438.49	12.870
438.70	12.767
438.90	12.682
439.10	12.624
439.30	12.869
439.50	12.210
439.71	12.543
439.91	12.477
440.11	13.346
440.31	12.645
440.51	12.806
440.72	12.979
440.92	12.815
441.12	12.819
441.32	13.233
441.52	13.370
441.72	13.200
441.93	13.211
442.13	13.282
442.33	13.567
442.53	13.952
442.73	13.671
442.94	13.798
443.14	13.951
443.34	13.744
443.54	13.764
443.74	14.237
443.94	13.833
444.15	13.838
444.35	13.424
444.55	14.176
444.75	13.675
444.95	13.980
445.15	13.592
445.36	13.813
445.56	12.950
445.76	13.432
445.96	13.130
446.16	12.992
446.36	13.251
446.57	13.566
446.77	13.276
446.97	13.468
447.17	13.723
447.37	13.739
447.57	13.675
447.77	14.075
447.98	13.827
448.18	14.271
448.38	14.434
448.58	14.463
448.78	14.854
448.98	14.415
449.18	14.133
449.39	14.354
449.59	14.383
449.79	14.816
449.99	14.678
450.19	14.797
450.39	13.960
450.59	14.513
450.79	14.168
451.00	15.275
451.20	15.985
451.40	14.562
451.60	14.398
451.80	14.687
452.00	14.556
452.20	14.804
452.40	14.087
452.61	14.737
452.81	14.352
453.01	14.463
453.21	14.341
453.41	14.673
453.61	14.541
453.81	14.682
454.01	14.765
454.21	14.661
454.42	14.939
454.62	15.079
454.82	14.643
455.02	15.080
455.22	14.170
455.42	14.810
455.62	14.148
455.82	15.115
456.02	14.789
456.23	14.849
456.43	15.109
456.63	14.417
456.83	14.223
457.03	14.650
457.23	14.312
457.43	15.086
457.63	14.497
457.83	15.271
458.03	14.358
458.23	14.251
458.43	14.096
458.64	14.619
458.84	14.303
459.04	14.715
459.24	14.199
459.44	13.930
459.64	14.145
459.84	13.885
460.04	13.821
460.24	14.023
460.44	14.272
460.64	14.429
460.84	14.580
461.04	14.208
461.24	14.738
461.45	14.302
461.65	14.656
461.85	14.703
462.05	14.977
462.25	15.369
462.45	15.883
462.65	15.392
462.85	15.017
463.05	15.698
463.25	15.285
463.45	15.582
463.65	15.169
463.85	15.140
464.05	15.424
464.25	14.943
464.45	15.225
464.65	14.987
464.85	15.134
465.05	15.115
465.26	14.829
465.46	15.735
465.66	14.857
465.86	15.699
466.06	15.157
466.26	14.841
466.46	14.693
466.66	15.056
466.86	15.050
467.06	15.252
467.26	15.513
467.46	15.665
467.66	15.131
467.86	14.924
468.06	15.112
468.26	15.260
468.46	15.276
468.66	15.591
468.86	15.067
469.06	15.785
469.26	15.035
469.46	15.474
