SpectraSuite Data File
++++++++++++++++++++++++++++++++++++
Date: Tue Sep 24 03:47:36 EST 2019
User: sgrac
Dark Spectrum Present: Yes
Reference Spectrum Present: Yes
Number of Sampled Component Spectra: 1
Spectrometers: USB4E01596
Integration Time (usec): 100000 (USB4E01596)
Spectra Averaged: 3 (USB4E01596)
Boxcar Smoothing: 0 (USB4E01596)
Correct for Electrical Dark: No (USB4E01596)
Strobe/Lamp Enabled: Yes (USB4E01596)
Correct for Detector Non-linearity: No (USB4E01596)
Correct for Stray Light: No (USB4E01596)
Number of Pixels in Processed Spectrum: 3648
>>>>>Begin Processed Spectral Data<<<<<
178.44	1731.818
178.66	1731.818
178.87	1731.818
179.09	690.566
179.30	717.778
179.52	-1243.333
179.74	733.962
179.95	583.582
180.17	-18650.000
180.38	-14800.000
180.60	612.360
180.82	-3557.143
181.03	1162.162
181.25	-1834.783
181.46	662.500
181.68	3633.333
181.89	-1870.833
182.11	557.576
182.33	1240.000
182.54	780.702
182.76	-765.000
182.97	286.957
183.19	884.444
183.40	5022.222
183.62	546.341
183.84	668.000
184.05	932.609
184.27	549.383
184.48	-2427.778
184.70	488.172
184.91	605.263
185.13	707.895
185.34	523.656
185.56	1246.875
185.78	1500.000
185.99	2812.500
186.21	556.250
186.42	814.286
186.64	522.581
186.85	972.917
187.07	-4490.000
187.28	-2311.765
187.50	-41900.000
187.72	44400.000
187.93	-2158.333
188.15	1055.814
188.36	640.541
188.58	643.243
188.79	-5485.714
189.01	-3838.462
189.22	1512.000
189.44	498.837
189.65	674.242
189.87	-6442.857
190.09	1105.882
190.30	1321.053
190.52	2157.143
190.73	7200.000
190.95	1278.947
191.16	424.051
191.38	4363.636
191.59	3121.429
191.81	1270.588
192.02	1019.149
192.24	812.245
192.45	2500.000
192.67	561.039
192.88	440.816
193.10	696.970
193.31	434.343
193.53	1152.632
193.74	-41700.000
193.96	742.254
194.18	326.415
194.39	529.348
194.61	513.889
194.82	419.492
195.04	386.916
195.25	0.000
195.47	-37300.000
195.68	410.000
195.90	560.000
196.11	598.795
196.33	727.907
196.54	395.413
196.76	1366.667
196.97	-3516.667
197.19	540.698
197.40	835.088
197.62	733.962
197.83	474.038
198.05	584.932
198.26	0.000
198.48	-788.889
198.69	1303.333
198.91	6142.857
199.12	-9050.000
199.34	508.889
199.55	-39600.000
199.77	2566.667
199.98	705.634
200.20	359.504
200.41	675.000
200.63	1414.706
200.84	-3453.846
201.06	481.013
201.27	1708.000
201.49	868.085
201.70	536.782
201.91	666.197
202.13	698.507
202.34	-1452.000
202.56	314.789
202.77	5087.500
202.99	5450.000
203.20	659.420
203.42	1256.757
203.63	4187.500
203.85	426.050
204.06	844.231
204.28	362.712
204.49	1221.212
204.71	-1028.125
204.92	321.014
205.14	1367.742
205.35	1026.190
205.56	441.905
205.78	-902.000
205.99	1115.385
206.21	821.053
206.42	607.576
206.64	2030.435
206.85	451.807
207.07	-619.355
207.28	1824.000
207.50	454.348
207.71	858.333
207.93	12466.667
208.14	1202.632
208.35	-3341.667
208.57	-1182.759
208.78	307.692
209.00	1052.500
209.21	439.604
209.43	-7066.667
209.64	281.250
209.86	736.842
210.07	907.143
210.28	1334.483
210.50	7916.667
210.71	1451.613
210.93	-2753.333
211.14	761.818
211.36	473.958
211.57	1622.222
211.78	4355.556
212.00	-2311.111
212.21	970.732
212.43	900.000
212.64	567.073
212.86	2017.391
213.07	647.059
213.29	3107.143
213.50	316.667
213.71	549.398
213.93	360.000
214.14	399.145
214.36	491.765
214.57	-3980.000
214.78	1138.462
215.00	459.504
215.21	997.500
215.43	1716.000
215.64	499.074
215.86	482.075
216.07	9925.000
216.28	667.164
216.50	517.647
216.71	1472.414
216.93	-1044.186
217.14	477.778
217.35	848.214
217.57	376.068
217.78	706.452
218.00	463.636
218.21	597.183
218.42	1585.185
218.64	2880.000
218.85	907.143
219.07	378.151
219.28	638.462
219.49	445.872
219.71	710.000
219.92	1160.000
220.14	963.043
220.35	4081.818
220.56	839.024
220.78	1133.333
220.99	592.308
221.21	578.378
221.42	593.243
221.63	6925.000
221.85	1460.714
222.06	1329.167
222.28	489.873
222.49	524.731
222.70	358.000
222.92	808.772
223.13	1922.222
223.34	1184.375
223.56	309.449
223.77	290.972
223.99	590.000
224.20	296.575
224.41	616.000
224.63	434.694
224.84	319.286
225.05	288.800
225.27	690.196
225.48	406.061
225.69	414.583
225.91	490.361
226.12	277.041
226.34	231.285
226.55	198.723
226.76	240.000
226.98	253.750
227.19	189.216
227.40	196.537
227.62	191.748
227.83	147.514
228.04	129.217
228.26	126.426
228.47	85.806
228.69	75.306
228.90	68.257
229.11	66.617
229.33	56.625
229.54	48.210
229.75	45.550
229.97	49.464
230.18	48.618
230.39	34.205
230.61	42.040
230.82	54.263
231.03	39.979
231.25	56.103
231.46	47.519
231.67	61.069
231.89	69.608
232.10	57.042
232.31	68.409
232.53	59.873
232.74	72.598
232.95	72.397
233.17	72.552
233.38	74.539
233.59	83.386
233.81	91.952
234.02	89.331
234.23	91.115
234.45	72.887
234.66	75.091
234.87	78.605
235.09	74.194
235.30	67.733
235.51	82.676
235.73	60.059
235.94	66.144
236.15	69.683
236.36	70.410
236.58	58.146
236.79	73.186
237.00	59.590
237.22	65.873
237.43	70.461
237.64	73.167
237.86	65.235
238.07	78.694
238.28	59.556
238.50	56.349
238.71	69.774
238.92	62.833
239.13	64.865
239.35	61.029
239.56	58.776
239.77	65.757
239.99	51.669
240.20	63.120
240.41	54.909
240.63	47.016
240.84	49.352
241.05	46.371
241.26	34.667
241.48	44.396
241.69	39.812
241.90	36.977
242.12	27.715
242.33	30.306
242.54	22.246
242.75	21.733
242.97	22.964
243.18	20.214
243.39	21.221
243.61	21.305
243.82	20.420
244.03	19.168
244.24	17.408
244.46	20.237
244.67	24.380
244.88	22.871
245.09	21.583
245.31	24.306
245.52	27.323
245.73	31.511
245.95	37.750
246.16	24.257
246.37	18.653
246.58	23.510
246.80	19.739
247.01	17.638
247.22	15.828
247.43	14.575
247.65	13.732
247.86	11.683
248.07	11.300
248.28	12.428
248.50	11.116
248.71	12.465
248.92	11.096
249.13	12.093
249.35	11.156
249.56	14.108
249.77	14.671
249.98	12.808
250.20	21.663
250.41	17.614
250.62	22.755
250.83	21.815
251.05	25.353
251.26	26.167
251.47	24.831
251.68	25.014
251.90	23.169
252.11	21.361
252.32	23.941
252.53	19.844
252.75	22.486
252.96	24.060
253.17	17.923
253.38	19.661
253.59	17.940
253.81	20.092
254.02	17.152
254.23	20.817
254.44	22.417
254.66	23.457
254.87	22.343
255.08	29.953
255.29	31.451
255.50	35.446
255.72	28.394
255.93	36.738
256.14	37.006
256.35	27.355
256.57	38.657
256.78	28.740
256.99	25.249
257.20	32.842
257.41	29.887
257.63	27.049
257.84	24.088
258.05	28.926
258.26	17.129
258.47	24.809
258.69	21.586
258.90	20.587
259.11	17.962
259.32	16.490
259.53	13.785
259.75	15.676
259.96	9.884
260.17	11.395
260.38	9.864
260.59	9.077
260.81	10.575
261.02	8.797
261.23	10.155
261.44	9.377
261.65	9.811
261.87	8.828
262.08	9.952
262.29	12.451
262.50	12.555
262.71	13.371
262.92	13.759
263.14	12.429
263.35	16.099
263.56	18.779
263.77	18.289
263.98	19.831
264.20	19.955
264.41	18.758
264.62	18.794
264.83	17.051
265.04	23.446
265.25	19.649
265.47	22.443
265.68	19.321
265.89	21.530
266.10	19.425
266.31	20.835
266.52	19.877
266.74	19.325
266.95	15.460
267.16	17.142
267.37	18.081
267.58	16.807
267.79	15.866
268.01	15.058
268.22	14.330
268.43	14.679
268.64	14.149
268.85	15.492
269.06	13.299
269.27	16.190
269.49	16.006
269.70	13.262
269.91	14.125
270.12	14.677
270.33	16.424
270.54	12.937
270.75	14.706
270.97	15.759
271.18	14.133
271.39	13.749
271.60	16.032
271.81	10.908
272.02	12.353
272.23	14.224
272.45	13.256
272.66	12.816
272.87	11.758
273.08	11.260
273.29	11.899
273.50	12.533
273.71	11.578
273.92	8.788
274.14	10.598
274.35	12.087
274.56	12.999
274.77	10.882
274.98	12.557
275.19	14.785
275.40	10.547
275.61	12.216
275.83	11.548
276.04	13.814
276.25	16.491
276.46	14.949
276.67	18.394
276.88	14.376
277.09	10.925
277.30	15.936
277.51	15.566
277.73	13.290
277.94	14.536
278.15	15.016
278.36	14.972
278.57	12.604
278.78	13.725
278.99	13.596
279.20	16.144
279.41	17.455
279.62	14.542
279.84	11.246
280.05	14.410
280.26	12.207
280.47	13.680
280.68	13.134
280.89	13.216
281.10	12.344
281.31	14.274
281.52	11.914
281.73	12.823
281.94	11.323
282.16	12.651
282.37	12.861
282.58	12.652
282.79	12.279
283.00	12.259
283.21	10.292
283.42	10.582
283.63	11.635
283.84	11.177
284.05	11.795
284.26	11.391
284.47	10.280
284.68	10.925
284.89	10.163
285.11	10.933
285.32	10.630
285.53	11.980
285.74	10.877
285.95	9.426
286.16	8.815
286.37	8.729
286.58	9.160
286.79	9.350
287.00	10.159
287.21	8.977
287.42	10.862
287.63	9.057
287.84	8.750
288.05	11.084
288.26	9.314
288.48	10.483
288.69	9.850
288.90	11.041
289.11	11.528
289.32	9.899
289.53	10.369
289.74	10.103
289.95	10.418
290.16	10.787
290.37	8.880
290.58	9.293
290.79	9.161
291.00	9.062
291.21	9.560
291.42	9.516
291.63	9.735
291.84	10.252
292.05	9.685
292.26	7.816
292.47	10.253
292.68	10.122
292.89	10.588
293.10	11.070
293.31	11.049
293.52	9.230
293.73	9.858
293.94	12.190
294.15	12.365
294.36	11.715
294.57	10.715
294.79	10.800
295.00	10.108
295.21	11.466
295.42	10.691
295.63	10.673
295.84	8.779
296.05	8.310
296.26	9.447
296.47	9.653
296.68	8.700
296.89	9.628
297.10	9.796
297.31	9.813
297.52	8.583
297.73	6.925
297.94	8.335
298.15	7.090
298.36	7.433
298.57	7.850
298.78	8.138
298.99	7.926
299.20	7.589
299.41	8.047
299.62	7.822
299.83	8.465
300.04	7.391
300.25	10.502
300.46	9.700
300.67	11.180
300.88	8.520
301.09	7.245
301.30	10.518
301.50	7.114
301.71	10.405
301.92	11.248
302.13	8.503
302.34	8.206
302.55	10.311
302.76	10.419
302.97	9.521
303.18	9.743
303.39	10.895
303.60	10.791
303.81	10.902
304.02	7.634
304.23	8.210
304.44	9.800
304.65	10.445
304.86	9.407
305.07	8.935
305.28	10.111
305.49	9.330
305.70	11.826
305.91	9.687
306.12	8.909
306.33	9.976
306.54	8.673
306.75	11.915
306.96	11.977
307.17	8.524
307.38	10.757
307.58	8.851
307.79	10.851
308.00	10.810
308.21	12.140
308.42	9.765
308.63	8.616
308.84	10.777
309.05	10.288
309.26	8.323
309.47	8.284
309.68	9.414
309.89	10.611
310.10	9.414
310.31	8.767
310.52	7.865
310.73	9.981
310.94	6.270
311.14	8.289
311.35	7.603
311.56	8.521
311.77	7.395
311.98	6.504
312.19	6.646
312.40	7.564
312.61	6.428
312.82	8.750
313.03	7.060
313.24	8.107
313.45	8.363
313.66	8.988
313.86	9.492
314.07	8.017
314.28	10.263
314.49	9.719
314.70	9.865
314.91	10.204
315.12	8.854
315.33	9.889
315.54	8.019
315.75	8.785
315.96	9.419
316.16	8.340
316.37	10.266
316.58	8.805
316.79	9.483
317.00	10.023
317.21	10.203
317.42	10.470
317.63	10.180
317.84	11.808
318.05	8.462
318.25	10.391
318.46	9.974
318.67	8.983
318.88	9.544
319.09	10.920
319.30	9.829
319.51	10.591
319.72	9.093
319.93	8.377
320.13	8.749
320.34	9.837
320.55	10.150
320.76	10.197
320.97	11.506
321.18	12.461
321.39	9.124
321.60	10.951
321.80	10.523
322.01	10.970
322.22	10.260
322.43	8.395
322.64	9.101
322.85	9.840
323.06	11.336
323.27	11.005
323.47	9.769
323.68	10.547
323.89	10.225
324.10	10.599
324.31	8.732
324.52	8.831
324.73	11.285
324.93	8.843
325.14	8.293
325.35	9.382
325.56	9.210
325.77	10.795
325.98	8.668
326.19	9.271
326.39	6.678
326.60	9.152
326.81	8.328
327.02	8.142
327.23	8.080
327.44	9.953
327.64	6.360
327.85	8.271
328.06	7.810
328.27	10.148
328.48	8.736
328.69	8.895
328.90	8.498
329.10	9.046
329.31	9.499
329.52	8.584
329.73	9.741
329.94	8.839
330.15	9.479
330.35	10.282
330.56	9.433
330.77	8.724
330.98	9.810
331.19	9.654
331.39	10.744
331.60	9.731
331.81	8.970
332.02	9.457
332.23	10.526
332.44	8.961
332.64	9.887
332.85	10.621
333.06	9.841
333.27	8.700
333.48	8.820
333.68	8.480
333.89	9.671
334.10	7.350
334.31	9.859
334.52	9.229
334.72	7.918
334.93	8.951
335.14	7.077
335.35	8.209
335.56	9.821
335.76	8.513
335.97	9.681
336.18	7.019
336.39	10.102
336.60	9.597
336.80	8.062
337.01	7.811
337.22	8.783
337.43	9.157
337.64	10.460
337.84	8.536
338.05	8.864
338.26	8.439
338.47	8.472
338.68	7.250
338.88	9.374
339.09	7.716
339.30	8.196
339.51	7.312
339.71	8.394
339.92	7.588
340.13	8.813
340.34	8.328
340.55	7.987
340.75	8.046
340.96	6.936
341.17	9.340
341.38	8.189
341.58	8.022
341.79	9.125
342.00	6.868
342.21	7.360
342.41	8.711
342.62	7.133
342.83	9.008
343.04	8.600
343.24	8.548
343.45	8.414
343.66	6.894
343.87	7.761
344.07	7.454
344.28	6.229
344.49	7.856
344.70	7.418
344.90	6.702
345.11	7.127
345.32	6.546
345.53	6.800
345.73	6.824
345.94	7.150
346.15	7.850
346.36	6.760
346.56	6.788
346.77	6.785
346.98	7.288
347.19	7.361
347.39	6.248
347.60	7.270
347.81	5.956
348.02	9.251
348.22	6.990
348.43	8.166
348.64	7.640
348.84	7.412
349.05	8.072
349.26	8.119
349.47	5.930
349.67	7.898
349.88	9.044
350.09	6.970
350.30	9.365
350.50	7.471
350.71	7.292
350.92	7.345
351.12	6.793
351.33	6.456
351.54	7.622
351.74	6.935
351.95	6.932
352.16	6.647
352.37	8.635
352.57	8.243
352.78	7.495
352.99	7.364
353.19	7.688
353.40	7.083
353.61	8.347
353.82	7.951
354.02	6.767
354.23	7.618
354.44	8.336
354.64	7.920
354.85	8.022
355.06	6.062
355.26	7.625
355.47	7.723
355.68	8.974
355.88	6.949
356.09	7.629
356.30	5.707
356.51	7.901
356.71	7.096
356.92	5.287
357.13	7.403
357.33	8.795
357.54	6.218
357.75	5.845
357.95	7.470
358.16	5.630
358.37	8.055
358.57	6.594
358.78	7.932
358.99	6.734
359.19	7.317
359.40	7.908
359.61	7.442
359.81	7.877
360.02	8.524
360.23	6.763
360.43	6.962
360.64	6.514
360.85	7.604
361.05	6.474
361.26	7.474
361.47	6.280
361.67	6.681
361.88	5.536
362.09	6.917
362.29	5.469
362.50	5.573
362.70	5.117
362.91	7.037
363.12	5.367
363.32	5.513
363.53	6.610
363.74	6.614
363.94	5.262
364.15	7.502
364.36	8.021
364.56	5.734
364.77	7.451
364.98	8.813
365.18	7.255
365.39	8.051
365.59	6.997
365.80	6.549
366.01	8.004
366.21	6.402
366.42	6.622
366.63	8.283
366.83	7.122
367.04	5.695
367.24	8.064
367.45	5.686
367.66	5.389
367.86	7.484
368.07	7.092
368.28	7.424
368.48	6.455
368.69	6.092
368.89	6.743
369.10	7.043
369.31	6.978
369.51	8.316
369.72	7.915
369.92	8.592
370.13	6.520
370.34	7.354
370.54	4.641
370.75	7.090
370.95	6.983
371.16	7.208
371.37	7.085
371.57	6.268
371.78	6.948
371.98	7.545
372.19	7.129
372.40	7.317
372.60	7.548
372.81	6.832
373.01	6.204
373.22	6.613
373.43	8.123
373.63	7.035
373.84	7.907
374.04	7.158
374.25	7.473
374.46	8.094
374.66	8.009
374.87	8.263
375.07	6.917
375.28	5.638
375.48	6.660
375.69	7.695
375.90	6.330
376.10	6.092
376.31	6.314
376.51	6.481
376.72	7.115
376.92	5.824
377.13	7.449
377.34	7.915
377.54	6.678
377.75	8.086
377.95	7.339
378.16	8.036
378.36	8.038
378.57	7.731
378.77	7.324
378.98	7.656
379.19	6.646
379.39	6.226
379.60	7.815
379.80	7.200
380.01	8.079
380.21	6.833
380.42	8.166
380.62	7.164
380.83	7.806
381.04	7.209
381.24	7.508
381.45	8.098
381.65	7.241
381.86	7.947
382.06	9.215
382.27	7.033
382.47	7.648
382.68	8.284
382.88	8.807
383.09	7.805
383.29	7.153
383.50	9.849
383.71	7.716
383.91	8.256
384.12	7.308
384.32	8.651
384.53	8.261
384.73	7.054
384.94	7.322
385.14	8.124
385.35	8.019
385.55	9.419
385.76	8.390
385.96	7.959
386.17	8.420
386.37	9.218
386.58	8.610
386.78	10.179
386.99	7.760
387.19	9.241
387.40	7.864
387.60	10.150
387.81	9.159
388.01	9.178
388.22	9.637
388.42	10.911
388.63	11.637
388.83	11.231
389.04	7.932
389.24	9.903
389.45	9.595
389.65	9.749
389.86	9.626
390.06	9.775
390.27	9.671
390.47	10.347
390.68	9.751
390.88	11.533
391.09	11.611
391.29	11.432
391.50	10.524
391.70	11.543
391.91	10.050
392.11	11.246
392.32	11.402
392.52	12.055
392.73	11.519
392.93	11.865
393.14	11.676
393.34	11.718
393.55	12.755
393.75	11.544
393.95	10.850
394.16	13.188
394.36	12.168
394.57	13.731
394.77	13.037
394.98	12.299
395.18	12.936
395.39	12.475
395.59	12.646
395.80	13.132
396.00	12.510
396.21	14.296
396.41	12.213
396.61	13.892
396.82	13.628
397.02	15.013
397.23	14.454
397.43	13.801
397.64	11.931
397.84	14.532
398.05	11.918
398.25	14.275
398.45	12.661
398.66	14.132
398.86	13.594
399.07	15.114
399.27	12.845
399.48	14.968
399.68	13.113
399.89	14.181
400.09	14.546
400.29	13.504
400.50	14.042
400.70	14.734
400.91	13.147
401.11	13.483
401.32	14.922
401.52	13.615
401.72	13.773
401.93	15.292
402.13	13.934
402.34	13.871
402.54	13.482
402.75	16.259
402.95	11.930
403.15	15.880
403.36	12.790
403.56	15.338
403.77	13.363
403.97	14.281
404.17	13.553
404.38	14.883
404.58	13.049
404.79	14.435
404.99	14.619
405.19	14.155
405.40	14.477
405.60	14.729
405.81	13.511
406.01	15.207
406.21	13.925
406.42	14.745
406.62	14.378
406.83	15.437
407.03	14.814
407.23	14.374
407.44	14.146
407.64	14.991
407.85	14.445
408.05	15.363
408.25	14.490
408.46	15.693
408.66	14.816
408.87	14.589
409.07	13.819
409.27	14.400
409.48	14.534
409.68	15.310
409.88	12.724
410.09	14.573
410.29	14.702
410.50	16.189
410.70	13.203
410.90	13.739
411.11	13.579
411.31	14.333
411.51	14.959
411.72	14.907
411.92	13.458
412.12	14.927
412.33	13.876
412.53	14.804
412.74	13.113
412.94	14.296
413.14	14.148
413.35	14.220
413.55	14.397
413.75	15.467
413.96	13.224
414.16	14.725
414.36	14.164
414.57	14.005
414.77	13.497
414.97	14.566
415.18	13.929
415.38	14.327
415.58	14.017
415.79	13.505
415.99	13.250
416.19	14.371
416.40	14.021
416.60	14.325
416.80	13.225
417.01	13.884
417.21	12.700
417.41	14.494
417.62	14.021
417.82	13.672
418.02	12.808
418.23	14.066
418.43	13.084
418.63	14.009
418.84	13.554
419.04	13.320
419.24	14.002
419.45	14.123
419.65	14.056
419.85	13.890
420.06	13.450
420.26	13.775
420.46	13.599
420.67	13.677
420.87	13.756
421.07	14.095
421.28	13.345
421.48	13.826
421.68	13.642
421.88	13.457
422.09	13.920
422.29	14.075
422.49	13.360
422.70	13.878
422.90	13.732
423.10	13.840
423.31	13.993
423.51	14.215
423.71	13.453
423.91	13.511
424.12	13.340
424.32	13.880
424.52	13.291
424.73	13.068
424.93	13.414
425.13	12.970
425.33	13.290
425.54	13.444
425.74	13.590
425.94	14.000
426.15	13.575
426.35	13.562
426.55	14.140
426.75	13.731
426.96	13.752
427.16	14.127
427.36	13.892
427.57	14.176
427.77	13.664
427.97	13.924
428.17	13.761
428.38	13.984
428.58	12.980
428.78	14.503
428.98	13.180
429.19	13.698
429.39	12.763
429.59	13.884
429.79	12.329
430.00	12.934
430.20	12.496
430.40	13.880
430.60	12.870
430.81	13.030
431.01	13.233
431.21	13.831
431.41	13.313
431.62	13.855
431.82	13.322
432.02	14.572
432.22	13.275
432.43	13.301
432.63	12.968
432.83	13.748
433.03	13.191
433.24	12.625
433.44	13.295
433.64	13.911
433.84	13.162
434.05	13.805
434.25	13.304
434.45	13.744
434.65	14.185
434.85	14.573
435.06	14.440
435.26	14.409
435.46	14.022
435.66	14.674
435.87	14.238
436.07	15.165
436.27	14.855
436.47	14.916
436.67	14.507
436.88	15.025
437.08	14.003
437.28	14.397
437.48	14.498
437.69	14.597
437.89	14.508
438.09	14.870
438.29	14.368
438.49	14.632
438.70	14.802
438.90	14.565
439.10	14.476
439.30	15.012
439.50	13.856
439.71	14.943
439.91	15.056
440.11	15.430
440.31	14.763
440.51	14.857
440.72	14.680
440.92	14.732
441.12	15.399
441.32	15.237
441.52	15.202
441.72	15.192
441.93	15.346
442.13	15.369
442.33	15.702
442.53	16.017
442.73	15.372
442.94	16.016
443.14	15.720
443.34	16.241
443.54	16.173
443.74	16.296
443.94	15.568
444.15	16.351
444.35	15.642
444.55	16.148
444.75	15.673
444.95	16.057
445.15	15.733
445.36	15.580
445.56	15.455
445.76	15.734
445.96	15.252
446.16	15.037
446.36	15.516
446.57	15.648
446.77	15.831
446.97	15.665
447.17	15.681
447.37	15.964
447.57	15.833
447.77	15.992
447.98	16.003
448.18	16.299
448.38	16.352
448.58	16.393
448.78	16.985
448.98	16.424
449.18	16.541
449.39	16.760
449.59	16.883
449.79	16.891
449.99	16.861
450.19	17.150
450.39	16.647
450.59	16.813
450.79	16.851
451.00	16.857
451.20	18.221
451.40	16.853
451.60	16.903
451.80	16.879
452.00	16.825
452.20	16.880
452.40	16.651
452.61	16.836
452.81	16.643
453.01	16.725
453.21	16.726
453.41	16.840
453.61	16.669
453.81	17.024
454.01	16.900
454.21	17.145
454.42	17.397
454.62	17.352
454.82	17.104
455.02	17.548
455.22	16.913
455.42	17.552
455.62	16.887
455.82	17.472
456.02	17.225
456.23	16.669
456.43	16.716
456.63	17.142
456.83	17.127
457.03	17.301
457.23	16.601
457.43	17.541
457.63	17.209
457.83	17.611
458.03	15.998
458.23	17.096
458.43	16.573
458.64	16.531
458.84	16.828
459.04	16.810
459.24	16.238
459.44	16.254
459.64	16.271
459.84	16.513
460.04	15.973
460.24	16.288
460.44	16.630
460.64	16.545
460.84	16.746
461.04	16.692
461.24	16.709
461.45	16.843
461.65	16.946
461.85	17.453
462.05	17.617
462.25	17.787
462.45	17.854
462.65	17.236
462.85	17.133
463.05	17.612
463.25	17.287
463.45	18.114
463.65	17.970
463.85	17.495
464.05	17.489
464.25	17.430
464.45	17.841
464.65	17.283
464.85	16.900
465.05	17.472
465.26	17.824
465.46	17.641
465.66	17.576
465.86	17.986
466.06	17.297
466.26	17.401
466.46	16.960
466.66	17.254
466.86	17.265
467.06	17.592
467.26	17.654
467.46	17.997
467.66	17.529
467.86	17.797
