SpectraSuite Data File
++++++++++++++++++++++++++++++++++++
Date: Tue Sep 24 03:55:23 EST 2019
User: sgrac
Dark Spectrum Present: Yes
Reference Spectrum Present: Yes
Number of Sampled Component Spectra: 1
Spectrometers: USB4E01596
Integration Time (usec): 100000 (USB4E01596)
Spectra Averaged: 3 (USB4E01596)
Boxcar Smoothing: 0 (USB4E01596)
Correct for Electrical Dark: No (USB4E01596)
Strobe/Lamp Enabled: Yes (USB4E01596)
Correct for Detector Non-linearity: No (USB4E01596)
Correct for Stray Light: No (USB4E01596)
Number of Pixels in Processed Spectrum: 3648
>>>>>Begin Processed Spectral Data<<<<<
178.44	1368.182
178.66	1368.182
178.87	1368.182
179.09	733.962
179.30	760.000
179.52	-1080.000
179.74	815.094
179.95	685.075
180.17	-20000.000
180.38	-12933.333
180.60	568.539
180.82	-3642.857
181.03	1191.892
181.25	-1973.913
181.46	655.556
181.68	4333.333
181.89	-2154.167
182.11	627.273
182.33	1548.571
182.54	885.965
182.76	-880.000
182.97	331.677
183.19	1037.778
183.40	5133.333
183.62	550.000
183.84	580.000
184.05	919.565
184.27	548.148
184.48	-2122.222
184.70	513.978
184.91	669.737
185.13	751.316
185.34	553.763
185.56	1090.625
185.78	1687.500
185.99	2918.750
186.21	552.500
186.42	1002.381
186.64	507.527
186.85	945.833
187.07	-4240.000
187.28	-2117.647
187.50	-48200.000
187.72	40500.000
187.93	-2175.000
188.15	1116.279
188.36	693.243
188.58	629.730
188.79	-5814.286
189.01	-3369.231
189.22	1880.000
189.44	462.791
189.65	651.515
189.87	-5928.571
190.09	1182.353
190.30	1276.316
190.52	2076.190
190.73	6600.000
190.95	1118.421
191.16	541.772
191.38	4318.182
191.59	3128.571
191.81	1411.765
192.02	1057.447
192.24	818.367
192.45	2335.294
192.67	544.156
192.88	422.449
193.10	687.879
193.31	508.081
193.53	1118.421
193.74	-33400.000
193.96	874.648
194.18	418.868
194.39	460.870
194.61	512.037
194.82	431.356
195.04	404.673
195.25	0.000
195.47	-40400.000
195.68	458.000
195.90	544.706
196.11	625.301
196.33	1034.884
196.54	504.587
196.76	1269.697
196.97	-3333.333
197.19	545.349
197.40	973.684
197.62	856.604
197.83	474.038
198.05	756.164
198.26	0.000
198.48	-846.667
198.69	1443.333
198.91	6900.000
199.12	-9850.000
199.34	484.444
199.55	-39800.000
199.77	2666.667
199.98	709.859
200.20	360.331
200.41	615.789
200.63	1432.353
200.84	-3876.923
201.06	510.127
201.27	1460.000
201.49	1140.426
201.70	567.816
201.91	650.704
202.13	723.881
202.34	-1700.000
202.56	332.394
202.77	5200.000
202.99	7087.500
203.20	734.783
203.42	1172.973
203.63	4850.000
203.85	480.672
204.06	709.615
204.28	347.458
204.49	1233.333
204.71	-1096.875
204.92	368.841
205.14	1496.774
205.35	892.857
205.56	489.524
205.78	-900.000
205.99	1120.513
206.21	757.895
206.42	563.636
206.64	2091.304
206.85	550.602
207.07	-666.129
207.28	1600.000
207.50	507.609
207.71	833.333
207.93	12600.000
208.14	1265.789
208.35	-3458.333
208.57	-1013.793
208.78	325.175
209.00	985.000
209.21	465.347
209.43	-7000.000
209.64	300.568
209.86	698.246
210.07	947.619
210.28	1648.276
210.50	6583.333
210.71	1396.774
210.93	-3086.667
211.14	734.545
211.36	484.375
211.57	1674.074
211.78	4755.556
212.00	-2277.778
212.21	1119.512
212.43	926.786
212.64	580.488
212.86	1552.174
213.07	661.765
213.29	3007.143
213.50	337.302
213.71	555.422
213.93	369.231
214.14	345.299
214.36	538.824
214.57	-4150.000
214.78	1182.051
215.00	392.562
215.21	957.500
215.43	1828.000
215.64	412.963
215.86	484.906
216.07	10550.000
216.28	638.806
216.50	434.314
216.71	1448.276
216.93	-1072.093
217.14	487.879
217.35	737.500
217.57	372.650
217.78	758.065
218.00	436.364
218.21	571.831
218.42	1781.481
218.64	3386.667
218.85	866.071
219.07	378.151
219.28	675.385
219.49	448.624
219.71	697.143
219.92	1552.000
220.14	954.348
220.35	4027.273
220.56	948.780
220.78	1215.152
220.99	573.846
221.21	717.568
221.42	600.000
221.63	9950.000
221.85	1592.857
222.06	1429.167
222.28	567.089
222.49	526.882
222.70	462.000
222.92	754.386
223.13	1716.667
223.34	1390.625
223.56	382.677
223.77	274.306
223.99	420.000
224.20	341.096
224.41	525.333
224.63	514.286
224.84	300.000
225.05	356.800
225.27	635.294
225.48	437.374
225.69	452.083
225.91	501.205
226.12	264.796
226.34	267.039
226.55	214.468
226.76	260.000
226.98	265.000
227.19	199.020
227.40	225.108
227.62	214.563
227.83	142.818
228.04	134.337
228.26	116.817
228.47	97.419
228.69	79.592
228.90	61.101
229.11	65.723
229.33	61.925
229.54	50.239
229.75	48.586
229.97	51.132
230.18	47.390
230.39	38.028
230.61	41.727
230.82	53.962
231.03	36.334
231.25	53.756
231.46	48.139
231.67	52.799
231.89	61.152
232.10	63.380
232.31	65.202
232.53	72.293
232.74	82.520
232.95	91.325
233.17	65.909
233.38	68.844
233.59	92.247
233.81	83.219
234.02	83.002
234.23	69.338
234.45	77.990
234.66	72.909
234.87	72.558
235.09	71.889
235.30	68.459
235.51	80.446
235.73	66.079
235.94	60.658
236.15	72.063
236.36	71.927
236.58	67.862
236.79	68.139
237.00	56.955
237.22	62.381
237.43	64.986
237.64	72.833
237.86	59.280
238.07	73.095
238.28	57.037
238.50	62.434
238.71	75.188
238.92	58.485
239.13	61.024
239.35	60.735
239.56	59.456
239.77	71.760
239.99	55.130
240.20	69.528
240.41	50.424
240.63	55.055
240.84	48.881
241.05	43.167
241.26	41.156
241.48	40.660
241.69	35.893
241.90	36.202
242.12	28.472
242.33	24.011
242.54	22.465
242.75	21.683
242.97	26.705
243.18	20.837
243.39	19.009
243.61	21.220
243.82	22.115
244.03	19.168
244.24	20.889
244.46	18.703
244.67	24.902
244.88	19.378
245.09	20.686
245.31	25.028
245.52	22.045
245.73	28.221
245.95	40.000
246.16	25.248
246.37	21.771
246.58	22.747
246.80	21.830
247.01	17.711
247.22	14.487
247.43	12.522
247.65	14.847
247.86	13.740
248.07	12.185
248.28	8.817
248.50	10.379
248.71	11.827
248.92	9.987
249.13	13.084
249.35	9.610
249.56	13.849
249.77	13.487
249.98	11.834
250.20	18.672
250.41	15.719
250.62	18.486
250.83	21.323
251.05	24.882
251.26	25.323
251.47	23.481
251.68	24.903
251.90	19.945
252.11	22.302
252.32	24.987
252.53	23.735
252.75	20.685
252.96	21.230
253.17	17.223
253.38	17.844
253.59	19.248
253.81	20.050
254.02	19.336
254.23	22.644
254.44	21.515
254.66	22.979
254.87	22.614
255.08	29.132
255.29	27.985
255.50	33.795
255.72	28.670
255.93	27.774
256.14	34.534
256.35	29.013
256.57	29.678
256.78	28.810
256.99	27.907
257.20	31.836
257.41	28.878
257.63	30.076
257.84	29.827
258.05	27.493
258.26	18.570
258.47	24.656
258.69	21.398
258.90	19.292
259.11	19.508
259.32	17.776
259.53	13.751
259.75	14.463
259.96	11.528
260.17	11.419
260.38	9.631
260.59	9.116
260.81	8.586
261.02	9.765
261.23	8.229
261.44	9.736
261.65	8.797
261.87	8.236
262.08	9.773
262.29	11.390
262.50	12.301
262.71	11.004
262.92	13.530
263.14	12.053
263.35	13.940
263.56	21.364
263.77	18.693
263.98	16.861
264.20	21.015
264.41	19.488
264.62	18.250
264.83	16.464
265.04	22.735
265.25	18.031
265.47	22.579
265.68	20.379
265.89	18.315
266.10	16.327
266.31	23.121
266.52	18.932
266.74	16.570
266.95	15.186
267.16	15.607
267.37	16.391
267.58	16.970
267.79	14.823
268.01	13.738
268.22	14.237
268.43	14.771
268.64	13.403
268.85	15.433
269.06	13.880
269.27	15.137
269.49	14.917
269.70	14.721
269.91	15.563
270.12	14.553
270.33	17.881
270.54	16.815
270.75	14.369
270.97	14.640
271.18	15.324
271.39	13.335
271.60	14.987
271.81	11.508
272.02	12.849
272.23	12.044
272.45	10.541
272.66	10.314
272.87	11.253
273.08	9.575
273.29	11.287
273.50	11.507
273.71	11.822
273.92	9.620
274.14	10.767
274.35	10.393
274.56	11.359
274.77	11.618
274.98	12.154
275.19	12.835
275.40	11.402
275.61	11.027
275.83	14.836
276.04	13.469
276.25	15.665
276.46	13.420
276.67	17.499
276.88	13.175
277.09	12.802
277.30	12.977
277.51	13.751
277.73	13.489
277.94	14.040
278.15	13.653
278.36	13.778
278.57	14.035
278.78	11.882
278.99	12.791
279.20	17.301
279.41	16.133
279.62	12.869
279.84	11.306
280.05	14.499
280.26	13.493
280.47	12.878
280.68	14.603
280.89	12.476
281.10	15.179
281.31	16.452
281.52	13.106
281.73	11.282
281.94	10.615
282.16	13.084
282.37	12.715
282.58	12.308
282.79	13.884
283.00	12.397
283.21	9.431
283.42	9.866
283.63	11.372
283.84	11.462
284.05	10.595
284.26	11.054
284.47	10.814
284.68	9.716
284.89	9.335
285.11	10.757
285.32	10.228
285.53	11.308
285.74	10.975
285.95	9.369
286.16	8.926
286.37	8.387
286.58	8.734
286.79	7.814
287.00	8.623
287.21	8.663
287.42	8.842
287.63	6.700
287.84	7.879
288.05	9.588
288.26	8.779
288.48	10.267
288.69	8.606
288.90	10.818
289.11	11.367
289.32	9.256
289.53	10.225
289.74	9.809
289.95	10.083
290.16	11.296
290.37	9.501
290.58	9.412
290.79	10.121
291.00	9.814
291.21	10.011
291.42	8.581
291.63	9.295
291.84	9.163
292.05	7.866
292.26	8.101
292.47	9.762
292.68	8.232
292.89	9.988
293.10	10.883
293.31	10.280
293.52	9.361
293.73	10.013
293.94	10.350
294.15	10.094
294.36	11.651
294.57	12.193
294.79	12.021
295.00	9.497
295.21	10.992
295.42	9.186
295.63	10.989
295.84	8.040
296.05	9.593
296.26	9.577
296.47	8.581
296.68	7.758
296.89	9.816
297.10	8.519
297.31	9.798
297.52	8.642
297.73	7.553
297.94	7.433
298.15	8.267
298.36	7.192
298.57	6.564
298.78	7.754
298.99	7.529
299.20	7.003
299.41	8.076
299.62	7.473
299.83	7.403
300.04	8.456
300.25	10.038
300.46	10.325
300.67	11.891
300.88	8.853
301.09	9.008
301.30	10.078
301.50	8.142
301.71	11.828
301.92	11.248
302.13	8.927
302.34	8.380
302.55	11.118
302.76	10.320
302.97	9.658
303.18	9.901
303.39	10.954
303.60	10.649
303.81	12.053
304.02	10.086
304.23	9.496
304.44	9.006
304.65	9.720
304.86	9.886
305.07	9.585
305.28	9.121
305.49	9.094
305.70	11.984
305.91	8.527
306.12	8.809
306.33	9.563
306.54	9.333
306.75	10.609
306.96	11.811
307.17	9.814
307.38	11.007
307.58	9.505
307.79	10.267
308.00	9.787
308.21	11.440
308.42	10.687
308.63	9.512
308.84	10.618
309.05	9.732
309.26	8.781
309.47	7.769
309.68	8.974
309.89	10.967
310.10	9.483
310.31	8.767
310.52	7.446
310.73	9.695
310.94	7.363
311.14	8.658
311.35	8.555
311.56	8.552
311.77	7.144
311.98	7.319
312.19	6.845
312.40	7.425
312.61	6.898
312.82	8.875
313.03	7.419
313.24	9.114
313.45	8.859
313.66	8.611
313.86	10.103
314.07	9.247
314.28	8.707
314.49	8.827
314.70	10.694
314.91	11.646
315.12	9.639
315.33	9.812
315.54	8.356
315.75	8.804
315.96	8.702
316.16	9.258
316.37	11.164
316.58	8.863
316.79	10.819
317.00	10.903
317.21	10.536
317.42	11.533
317.63	11.900
317.84	11.628
318.05	9.050
318.25	9.878
318.46	9.752
318.67	9.244
318.88	10.328
319.09	10.617
319.30	9.508
319.51	11.283
319.72	8.952
319.93	10.899
320.13	9.714
320.34	11.219
320.55	8.997
320.76	10.514
320.97	10.608
321.18	12.482
321.39	10.119
321.60	10.972
321.80	11.582
322.01	12.129
322.22	10.522
322.43	9.917
322.64	7.363
322.85	9.647
323.06	10.223
323.27	10.597
323.47	10.099
323.68	11.370
323.89	10.087
324.10	10.312
324.31	9.566
324.52	9.532
324.73	10.572
324.93	8.185
325.14	9.127
325.35	10.447
325.56	9.210
325.77	9.007
325.98	8.533
326.19	10.075
326.39	6.123
326.60	9.221
326.81	8.019
327.02	9.079
327.23	7.496
327.44	9.761
327.64	6.517
327.85	8.254
328.06	8.538
328.27	11.011
328.48	8.895
328.69	10.384
328.90	8.836
329.10	9.878
329.31	10.060
329.52	8.973
329.73	9.171
329.94	8.898
330.15	10.062
330.35	9.939
330.56	10.414
330.77	10.076
330.98	9.924
331.19	9.873
331.39	11.764
331.60	9.750
331.81	7.485
332.02	10.486
332.23	11.286
332.44	8.522
332.64	10.169
332.85	10.415
333.06	8.998
333.27	8.404
333.48	8.094
333.68	8.660
333.89	9.760
334.10	7.492
334.31	9.094
334.52	9.037
334.72	8.309
334.93	7.966
335.14	8.262
335.35	8.381
335.56	9.991
335.76	8.407
335.97	10.483
336.18	7.682
336.39	9.369
336.60	10.071
336.80	7.181
337.01	9.421
337.22	8.683
337.43	10.022
337.64	9.784
337.84	9.513
338.05	8.979
338.26	11.095
338.47	8.455
338.68	6.920
338.88	10.111
339.09	7.884
339.30	8.813
339.51	8.498
339.71	8.311
339.92	8.356
340.13	9.162
340.34	8.534
340.55	8.477
340.75	7.578
340.96	8.277
341.17	10.302
341.38	8.502
341.58	10.119
341.79	7.803
342.00	8.108
342.21	8.906
342.41	7.942
342.62	9.002
342.83	9.134
343.04	8.040
343.24	9.344
343.45	9.412
343.66	7.906
343.87	8.085
344.07	8.232
344.28	8.159
344.49	8.685
344.70	9.441
344.90	6.917
345.11	7.568
345.32	8.220
345.53	7.943
345.73	7.529
345.94	8.748
346.15	8.463
346.36	7.682
346.56	7.286
346.77	6.676
346.98	7.906
347.19	8.012
347.39	7.211
347.60	8.536
347.81	8.663
348.02	9.091
348.22	8.082
348.43	8.365
348.64	8.946
348.84	6.818
349.05	8.849
349.26	9.832
349.47	7.984
349.67	7.837
349.88	9.258
350.09	8.188
350.30	10.499
350.50	7.909
350.71	8.826
350.92	7.225
351.12	8.784
351.33	8.139
351.54	8.479
351.74	8.193
351.95	8.205
352.16	9.465
352.37	8.754
352.57	8.258
352.78	8.318
352.99	8.542
353.19	8.491
353.40	8.986
353.61	9.274
353.82	8.459
354.02	8.031
354.23	9.258
354.44	9.468
354.64	7.864
354.85	9.131
355.06	7.244
355.26	7.457
355.47	8.135
355.68	10.028
355.88	7.982
356.09	8.246
356.30	6.023
356.51	8.068
356.71	6.784
356.92	6.502
357.13	8.141
357.33	8.995
357.54	7.291
357.75	5.798
357.95	8.240
358.16	6.902
358.37	8.502
358.57	6.628
358.78	7.944
358.99	6.901
359.19	6.657
359.40	7.114
359.61	6.014
359.81	7.683
360.02	9.436
360.23	7.088
360.43	6.917
360.64	6.124
360.85	6.397
361.05	5.970
361.26	7.404
361.47	6.985
361.67	6.816
361.88	5.564
362.09	6.199
362.29	5.469
362.50	5.107
362.70	5.193
362.91	6.313
363.12	5.216
363.32	5.158
363.53	5.971
363.74	6.113
363.94	5.834
364.15	6.740
364.36	7.076
364.56	5.851
364.77	7.341
364.98	8.479
365.18	6.784
365.39	7.795
365.59	6.209
365.80	6.187
366.01	7.754
366.21	6.603
366.42	6.487
366.63	7.823
366.83	6.416
367.04	5.747
367.24	7.409
367.45	5.185
367.66	6.090
367.86	7.909
368.07	6.504
368.28	6.069
368.48	6.530
368.69	6.446
368.89	7.184
369.10	7.162
369.31	7.022
369.51	7.983
369.72	7.638
369.92	8.370
370.13	5.595
370.34	6.634
370.54	5.983
370.75	7.325
370.95	6.786
371.16	6.579
371.37	6.444
371.57	5.903
371.78	6.206
371.98	6.981
372.19	6.588
372.40	6.680
372.60	7.432
372.81	5.782
373.01	5.955
373.22	5.621
373.43	7.386
373.63	6.388
373.84	7.296
374.04	6.501
374.25	6.722
374.46	7.243
374.66	7.132
374.87	7.184
375.07	6.746
375.28	5.851
375.48	6.732
375.69	6.935
375.90	5.823
376.10	5.473
376.31	5.840
376.51	7.016
376.72	5.607
376.92	5.787
377.13	6.254
377.34	7.201
377.54	6.145
377.75	7.205
377.95	6.599
378.16	6.830
378.36	7.575
378.57	6.358
378.77	6.589
378.98	6.972
379.19	6.097
379.39	5.477
379.60	7.110
379.80	6.087
380.01	7.370
380.21	6.591
380.42	7.212
380.62	6.702
380.83	7.209
381.04	6.277
381.24	6.990
381.45	6.729
381.65	6.429
381.86	6.797
382.06	8.394
382.27	6.926
382.47	7.048
382.68	8.484
382.88	7.301
383.09	7.179
383.29	7.051
383.50	8.677
383.71	7.180
383.91	7.463
384.12	6.647
384.32	7.695
384.53	7.190
384.73	6.933
384.94	6.093
385.14	7.052
385.35	7.339
385.55	8.140
385.76	7.201
385.96	7.599
386.17	7.939
386.37	7.985
386.58	7.810
386.78	9.390
386.99	7.688
387.19	9.116
387.40	7.348
387.60	9.707
387.81	8.447
388.01	8.582
388.22	9.772
388.42	11.020
388.63	11.103
388.83	10.723
389.04	8.658
389.24	9.809
389.45	9.844
389.65	9.951
389.86	9.879
390.06	9.989
390.27	9.663
390.47	10.852
390.68	10.025
390.88	12.049
391.09	11.635
391.29	12.370
391.50	9.849
391.70	11.920
391.91	11.503
392.11	12.062
392.32	12.074
392.52	12.719
392.73	13.179
392.93	13.480
393.14	12.621
393.34	12.746
393.55	13.791
393.75	13.358
393.95	13.190
394.16	14.504
394.36	15.091
394.57	14.654
394.77	15.276
394.98	14.466
395.18	15.102
395.39	15.321
395.59	15.059
395.80	15.773
396.00	15.875
396.21	17.226
396.41	15.670
396.61	16.732
396.82	16.134
397.02	18.183
397.23	17.523
397.43	16.851
397.64	15.941
397.84	17.795
398.05	15.710
398.25	18.300
398.45	16.086
398.66	18.189
398.86	17.144
399.07	18.680
399.27	17.862
399.48	18.966
399.68	17.669
399.89	19.302
400.09	19.423
400.29	19.259
400.50	18.246
400.70	19.651
400.91	19.436
401.11	19.243
401.32	19.786
401.52	19.054
401.72	19.115
401.93	20.699
402.13	20.132
402.34	19.691
402.54	19.641
402.75	21.477
402.95	18.032
403.15	21.062
403.36	18.406
403.56	21.256
403.77	19.328
403.97	20.716
404.17	19.042
404.38	20.488
404.58	19.340
404.79	20.822
404.99	20.421
405.19	20.615
405.40	20.565
405.60	21.109
405.81	20.006
406.01	21.538
406.21	20.154
406.42	21.143
406.62	20.600
406.83	21.710
407.03	20.378
407.23	21.315
407.44	21.133
407.64	22.170
407.85	21.627
408.05	22.527
408.25	21.215
408.46	22.680
408.66	21.231
408.87	21.071
409.07	21.261
409.27	21.080
409.48	21.066
409.68	22.131
409.88	20.044
410.09	21.051
410.29	20.871
410.50	22.387
410.70	20.698
410.90	21.121
411.11	20.802
411.31	21.240
411.51	21.551
411.72	21.802
411.92	21.219
412.12	21.589
412.33	20.984
412.53	20.948
412.74	19.946
412.94	21.677
413.14	21.523
413.35	21.287
413.55	21.237
413.75	22.404
413.96	20.176
414.16	21.798
414.36	20.820
414.57	21.261
414.77	20.454
414.97	21.355
415.18	20.419
415.38	20.569
415.58	20.129
415.79	20.985
415.99	19.814
416.19	21.644
416.40	20.645
416.60	20.952
416.80	20.113
417.01	21.037
417.21	19.759
417.41	20.388
417.62	19.905
417.82	20.589
418.02	19.520
418.23	20.577
418.43	19.498
418.63	20.411
418.84	19.652
419.04	19.686
419.24	20.448
419.45	19.991
419.65	20.089
419.85	20.139
420.06	20.028
420.26	19.844
420.46	19.322
420.67	20.097
420.87	19.441
421.07	19.468
421.28	19.401
421.48	20.007
421.68	19.395
421.88	19.310
422.09	19.515
422.29	19.709
422.49	19.633
422.70	20.055
422.90	19.824
423.10	19.727
423.31	20.022
423.51	19.945
423.71	19.797
423.91	19.438
424.12	19.270
424.32	19.697
424.52	19.588
424.73	19.097
424.93	19.249
425.13	19.196
425.33	19.327
425.54	19.605
425.74	19.638
425.94	19.847
426.15	19.777
426.35	20.110
426.55	20.054
426.75	19.736
426.96	19.790
427.16	19.722
427.36	19.789
427.57	20.587
427.77	20.350
427.97	20.247
428.17	19.760
428.38	19.587
428.58	19.629
428.78	20.609
428.98	19.787
429.19	19.632
429.39	19.462
429.59	20.095
429.79	19.407
430.00	19.498
430.20	19.311
430.40	19.771
430.60	19.282
430.81	19.773
431.01	19.188
431.21	19.943
431.41	19.587
431.62	19.340
431.82	20.186
432.02	20.498
432.22	19.467
432.43	19.114
432.63	19.615
432.83	19.286
433.03	19.054
433.24	19.077
433.44	19.525
433.64	19.769
433.84	19.190
434.05	19.669
434.25	19.405
434.45	20.350
434.65	20.466
434.85	20.101
435.06	20.435
435.26	20.756
435.46	20.265
435.66	20.888
435.87	20.471
436.07	21.294
436.27	21.159
436.47	20.991
436.67	20.800
436.88	21.367
437.08	20.850
437.28	20.652
437.48	20.859
437.69	20.964
437.89	20.912
438.09	20.862
438.29	20.554
438.49	21.448
438.70	20.788
438.90	20.385
439.10	20.481
439.30	20.426
439.50	20.263
439.71	20.011
439.91	20.878
440.11	20.714
440.31	20.309
440.51	20.288
440.72	20.402
440.92	20.577
441.12	20.597
441.32	20.934
441.52	20.636
441.72	21.041
441.93	21.342
442.13	20.962
442.33	21.380
442.53	21.730
442.73	21.390
442.94	21.888
443.14	21.778
443.34	21.652
443.54	22.289
443.74	21.911
443.94	21.949
444.15	21.412
444.35	21.199
444.55	21.393
444.75	21.280
444.95	21.271
445.15	21.098
445.36	21.228
445.56	20.607
445.76	20.791
445.96	20.658
446.16	20.514
446.36	21.040
446.57	20.927
446.77	20.909
446.97	20.924
447.17	20.863
447.37	21.306
447.57	21.359
447.77	21.204
447.98	21.567
448.18	21.897
448.38	21.701
448.58	21.487
448.78	22.507
448.98	21.969
449.18	21.954
449.39	22.345
449.59	22.300
449.79	22.282
449.99	22.763
450.19	22.449
450.39	22.318
450.59	21.959
450.79	21.872
451.00	22.391
451.20	23.426
451.40	22.409
451.60	22.136
451.80	22.290
452.00	22.463
452.20	22.544
452.40	22.237
452.61	22.123
452.81	22.073
453.01	21.876
453.21	21.826
453.41	21.971
453.61	21.290
453.81	21.975
454.01	22.166
454.21	22.290
454.42	22.359
454.62	21.934
454.82	22.238
455.02	22.301
455.22	22.010
455.42	22.738
455.62	21.223
455.82	22.257
456.02	22.378
456.23	21.893
456.43	22.688
456.63	22.229
456.83	22.193
457.03	21.769
457.23	21.872
457.43	22.086
457.63	21.858
457.83	22.010
458.03	21.542
458.23	21.681
458.43	21.845
458.64	21.489
458.84	21.456
459.04	21.715
459.24	21.229
459.44	20.829
459.64	20.677
459.84	20.919
460.04	20.455
460.24	20.856
460.44	21.218
460.64	21.386
460.84	21.614
461.04	21.638
461.24	21.632
461.45	21.516
461.65	21.740
461.85	22.331
462.05	22.598
462.25	22.687
462.45	23.312
462.65	22.298
462.85	22.041
463.05	22.695
463.25	22.423
463.45	22.390
463.65	22.059
463.85	22.181
464.05	22.325
464.25	22.534
464.45	22.538
464.65	22.046
464.85	21.843
465.05	22.150
465.26	22.134
465.46	22.251
465.66	22.110
465.86	22.289
466.06	21.969
466.26	21.907
466.46	21.918
466.66	22.115
466.86	22.316
467.06	21.924
467.26	22.039
467.46	22.368
467.66	21.616
