SpectraSuite Data File
++++++++++++++++++++++++++++++++++++
Date: Wed Sep 25 03:03:05 EST 2019
User: sgrac
Dark Spectrum Present: Yes
Reference Spectrum Present: Yes
Number of Sampled Component Spectra: 1
Spectrometers: USB4E01596
Integration Time (usec): 100000 (USB4E01596)
Spectra Averaged: 3 (USB4E01596)
Boxcar Smoothing: 0 (USB4E01596)
Correct for Electrical Dark: No (USB4E01596)
Strobe/Lamp Enabled: Yes (USB4E01596)
Correct for Detector Non-linearity: No (USB4E01596)
Correct for Stray Light: No (USB4E01596)
Number of Pixels in Processed Spectrum: 3648
>>>>>Begin Processed Spectral Data<<<<<
178.44	-180.769
178.66	-180.769
178.87	-180.769
179.09	-359.375
179.30	529.032
179.52	856.522
179.74	-465.789
179.95	-303.704
180.17	291.837
180.38	-553.571
180.60	-1200.000
180.82	-2633.333
181.03	504.651
181.25	-1475.000
181.46	-251.389
181.68	297.436
181.89	-622.581
182.11	8833.333
182.33	461.538
182.54	-10050.000
182.76	374.510
182.97	589.474
183.19	829.167
183.40	365.217
183.62	740.000
183.84	291.667
184.05	642.308
184.27	-1663.636
184.48	11300.000
184.70	788.889
184.91	326.415
185.13	1314.286
185.34	444.068
185.56	221.839
185.78	666.667
185.99	364.000
186.21	266.265
186.42	821.429
186.64	-1588.889
186.85	473.171
187.07	-808.000
187.28	181.250
187.50	-332.558
187.72	1023.810
187.93	791.892
188.15	1507.143
188.36	456.250
188.58	401.667
188.79	340.625
189.01	303.279
189.22	321.505
189.44	263.208
189.65	-436.585
189.87	667.857
190.09	244.231
190.30	221.296
190.52	-341.379
190.73	221.687
190.95	-1571.429
191.16	447.826
191.38	380.769
191.59	319.753
191.81	750.000
192.02	-2291.667
192.24	-1481.818
192.45	317.742
192.67	-5040.000
192.88	209.302
193.10	333.824
193.31	186.066
193.53	-167.742
193.74	700.000
193.96	-3616.667
194.18	1421.429
194.39	305.085
194.61	586.111
194.82	238.636
195.04	146.491
195.25	330.000
195.47	-19900.000
195.68	316.923
195.90	270.000
196.11	933.333
196.33	-145.238
196.54	739.286
196.76	369.355
196.97	172.222
197.19	205.263
197.40	-294.667
197.62	383.333
197.83	1064.706
198.05	223.750
198.26	460.417
198.48	1376.471
198.69	-548.718
198.91	339.062
199.12	-10400.000
199.34	495.122
199.55	940.000
199.77	404.762
199.98	938.095
200.20	315.476
200.41	150.000
200.63	267.073
200.84	395.556
201.06	158.228
201.27	-282.456
201.49	-2657.143
201.70	232.468
201.91	-2685.714
202.13	-806.250
202.34	-727.273
202.56	884.211
202.77	536.842
202.99	436.170
203.20	233.333
203.42	419.298
203.63	342.254
203.85	-1640.000
204.06	700.000
204.28	-2200.000
204.49	763.333
204.71	224.731
204.92	404.412
205.14	1281.250
205.35	615.625
205.56	850.000
205.78	576.364
205.99	284.146
206.21	397.436
206.42	272.881
206.64	325.000
206.85	460.465
207.07	-518.421
207.28	288.406
207.50	408.108
207.71	759.375
207.93	191.919
208.14	338.000
208.35	450.000
208.57	1360.000
208.78	740.000
209.00	478.723
209.21	388.889
209.43	178.641
209.64	-2100.000
209.86	366.667
210.07	-957.143
210.28	259.783
210.50	742.105
210.71	188.571
210.93	274.359
211.14	278.182
211.36	-2020.000
211.57	308.333
211.78	426.000
212.00	397.872
212.21	467.568
212.43	14500.000
212.64	500.000
212.86	362.500
213.07	836.364
213.29	-1513.333
213.50	609.677
213.71	832.000
213.93	1011.111
214.14	247.826
214.36	150.633
214.57	395.082
214.78	352.941
215.00	401.471
215.21	1361.538
215.43	245.455
215.64	532.558
215.86	424.242
216.07	320.000
216.28	934.783
216.50	224.074
216.71	272.414
216.93	502.632
217.14	250.450
217.35	796.154
217.57	177.419
217.78	1084.211
218.00	360.465
218.21	715.000
218.42	5200.000
218.64	179.832
218.85	513.333
219.07	478.689
219.28	212.281
219.49	469.697
219.71	204.054
219.92	800.000
220.14	1300.000
220.35	345.455
220.56	162.581
220.78	3980.000
220.99	301.220
221.21	152.542
221.42	409.756
221.63	290.000
221.85	334.783
222.06	170.940
222.28	421.053
222.49	362.500
222.70	212.844
222.92	323.596
223.13	240.909
223.34	198.425
223.56	278.261
223.77	214.286
223.99	638.462
224.20	125.175
224.41	148.361
224.63	128.689
224.84	347.887
225.05	232.967
225.27	223.377
225.48	171.698
225.69	147.619
225.91	382.692
226.12	190.299
226.34	139.310
226.55	84.348
226.76	117.143
226.98	99.153
227.19	108.046
227.40	105.405
227.62	70.445
227.83	87.189
228.04	70.990
228.26	38.596
228.47	52.685
228.69	39.599
228.90	39.024
229.11	44.854
229.33	21.306
229.54	19.917
229.75	27.318
229.97	27.170
230.18	17.751
230.39	20.655
230.61	25.803
230.82	24.533
231.03	19.208
231.25	22.307
231.46	19.806
231.67	35.007
231.89	18.105
232.10	38.911
232.31	33.826
232.53	37.298
232.74	34.628
232.95	36.414
233.17	45.631
233.38	32.331
233.59	45.880
233.81	28.008
234.02	46.693
234.23	38.189
234.45	35.198
234.66	39.306
234.87	49.225
235.09	38.545
235.30	33.803
235.51	35.601
235.73	26.853
235.94	30.804
236.15	22.422
236.36	23.361
236.58	27.563
236.79	27.031
237.00	46.250
237.22	36.858
237.43	34.993
237.64	27.090
237.86	39.297
238.07	24.248
238.28	23.910
238.50	21.550
238.71	28.070
238.92	36.148
239.13	38.975
239.35	34.138
239.56	25.535
239.77	39.003
239.99	27.460
240.20	34.310
240.41	26.482
240.63	19.333
240.84	30.786
241.05	30.644
241.26	14.172
241.48	24.729
241.69	21.890
241.90	10.885
242.12	11.392
242.33	14.422
242.54	12.247
242.75	12.493
242.97	16.106
243.18	8.267
243.39	8.249
243.61	10.061
243.82	10.333
244.03	9.892
244.24	8.833
244.46	9.710
244.67	12.927
244.88	13.369
245.09	12.931
245.31	15.722
245.52	13.470
245.73	14.471
245.95	23.956
246.16	14.129
246.37	12.984
246.58	12.620
246.80	9.793
247.01	8.408
247.22	8.858
247.43	6.904
247.65	7.126
247.86	6.057
248.07	6.164
248.28	6.057
248.50	6.479
248.71	5.433
248.92	6.160
249.13	6.965
249.35	5.554
249.56	7.561
249.77	6.676
249.98	6.660
250.20	8.973
250.41	8.082
250.62	12.495
250.83	10.464
251.05	13.892
251.26	10.348
251.47	10.792
251.68	12.680
251.90	8.119
252.11	14.711
252.32	10.968
252.53	8.914
252.75	12.301
252.96	11.243
253.17	10.039
253.38	10.685
253.59	8.741
253.81	11.902
254.02	9.625
254.23	10.862
254.44	9.942
254.66	12.835
254.87	12.754
255.08	9.844
255.29	14.140
255.50	19.064
255.72	16.090
255.93	15.830
256.14	14.467
256.35	12.635
256.57	13.257
256.78	13.762
256.99	19.372
257.20	14.255
257.41	14.257
257.63	10.488
257.84	14.340
258.05	11.946
258.26	12.402
258.47	15.937
258.69	9.300
258.90	8.532
259.11	12.144
259.32	8.378
259.53	8.348
259.75	7.195
259.96	7.715
260.17	3.232
260.38	7.281
260.59	5.817
260.81	3.772
261.02	5.454
261.23	5.207
261.44	6.712
261.65	5.541
261.87	4.070
262.08	4.015
262.29	7.275
262.50	3.916
262.71	7.125
262.92	7.418
263.14	5.604
263.35	4.581
263.56	8.580
263.77	9.272
263.98	6.982
264.20	7.381
264.41	8.782
264.62	8.790
264.83	7.706
265.04	12.285
265.25	6.756
265.47	13.792
265.68	10.033
265.89	11.209
266.10	8.846
266.31	7.586
266.52	8.827
266.74	9.840
266.95	8.521
267.16	6.940
267.37	7.105
267.58	5.353
267.79	7.838
268.01	7.418
268.22	5.904
268.43	8.525
268.64	7.103
268.85	5.326
269.06	7.737
269.27	10.448
269.49	7.573
269.70	8.285
269.91	4.600
270.12	8.062
270.33	8.846
270.54	6.825
270.75	9.462
270.97	5.150
271.18	5.606
271.39	8.100
271.60	8.118
271.81	6.085
272.02	6.903
272.23	7.612
272.45	6.429
272.66	5.878
272.87	5.191
273.08	6.592
273.29	5.367
273.50	5.056
273.71	5.292
273.92	6.121
274.14	6.063
274.35	6.615
274.56	5.766
274.77	5.485
274.98	6.504
275.19	6.646
275.40	6.171
275.61	5.112
275.83	10.123
276.04	6.862
276.25	6.798
276.46	6.931
276.67	10.566
276.88	5.677
277.09	4.778
277.30	4.877
277.51	7.071
277.73	6.487
277.94	5.630
278.15	7.810
278.36	10.252
278.57	7.412
278.78	6.258
278.99	6.133
279.20	8.446
279.41	9.178
279.62	7.665
279.84	6.024
280.05	8.243
280.26	7.688
280.47	8.491
280.68	5.942
280.89	7.402
281.10	6.486
281.31	6.731
281.52	6.593
281.73	2.946
281.94	3.981
282.16	6.541
282.37	5.747
282.58	5.203
282.79	7.744
283.00	6.974
283.21	5.384
283.42	5.484
283.63	5.567
283.84	4.902
284.05	5.616
284.26	5.554
284.47	3.420
284.68	5.695
284.89	6.561
285.11	5.378
285.32	4.218
285.53	4.101
285.74	5.540
285.95	6.623
286.16	4.832
286.37	6.079
286.58	5.783
286.79	4.381
287.00	5.408
287.21	5.084
287.42	4.409
287.63	3.591
287.84	3.365
288.05	4.908
288.26	5.897
288.48	6.688
288.69	4.423
288.90	5.615
289.11	5.937
289.32	5.222
289.53	4.296
289.74	3.602
289.95	4.538
290.16	7.297
290.37	4.493
290.58	4.751
290.79	5.568
291.00	4.270
291.21	4.625
291.42	6.613
291.63	3.096
291.84	4.548
292.05	5.506
292.26	6.245
292.47	4.695
292.68	4.433
292.89	7.239
293.10	4.364
293.31	4.332
293.52	5.003
293.73	4.757
293.94	5.484
294.15	4.434
294.36	4.686
294.57	4.083
294.79	5.651
295.00	3.956
295.21	5.814
295.42	4.580
295.63	5.279
295.84	4.098
296.05	3.208
296.26	4.709
296.47	3.311
296.68	4.810
296.89	4.110
297.10	4.282
297.31	3.243
297.52	4.805
297.73	3.150
297.94	3.088
298.15	3.987
298.36	4.148
298.57	2.860
298.78	4.834
298.99	3.253
299.20	4.664
299.41	4.463
299.62	4.799
299.83	2.909
300.04	4.628
300.25	5.641
300.46	4.669
300.67	4.764
300.88	4.904
301.09	3.459
301.30	4.669
301.50	5.213
301.71	6.022
301.92	5.223
302.13	4.128
302.34	4.844
302.55	4.123
302.76	4.010
302.97	4.201
303.18	6.283
303.39	4.340
303.60	5.908
303.81	5.493
304.02	4.861
304.23	4.536
304.44	3.981
304.65	6.089
304.86	4.415
305.07	5.641
305.28	5.561
305.49	7.194
305.70	5.576
305.91	2.301
306.12	6.619
306.33	6.025
306.54	6.147
306.75	3.939
306.96	8.803
307.17	4.529
307.38	6.424
307.58	4.591
307.79	4.794
308.00	4.592
308.21	3.764
308.42	4.351
308.63	5.282
308.84	3.965
309.05	3.747
309.26	4.013
309.47	3.057
309.68	3.888
309.89	4.435
310.10	3.934
310.31	3.647
310.52	3.764
310.73	4.810
310.94	4.435
311.14	3.984
311.35	4.789
311.56	3.246
311.77	2.924
311.98	4.194
312.19	3.482
312.40	3.292
312.61	4.591
312.82	3.734
313.03	3.545
313.24	4.355
313.45	3.941
313.66	4.355
313.86	4.475
314.07	3.453
314.28	5.231
314.49	5.543
314.70	4.434
314.91	5.964
315.12	5.921
315.33	4.155
315.54	5.091
315.75	5.275
315.96	4.945
316.16	4.931
316.37	5.814
316.58	3.754
316.79	6.251
317.00	4.995
317.21	6.151
317.42	3.762
317.63	5.471
317.84	4.676
318.05	5.767
318.25	6.643
318.46	6.171
318.67	6.140
318.88	4.294
319.09	5.125
319.30	3.819
319.51	4.931
319.72	3.887
319.93	4.511
320.13	4.309
320.34	5.150
320.55	5.074
320.76	6.521
320.97	3.878
321.18	5.410
321.39	3.595
321.60	4.573
321.80	5.706
322.01	6.400
322.22	5.424
322.43	3.699
322.64	5.368
322.85	4.500
323.06	6.406
323.27	3.943
323.47	5.074
323.68	6.897
323.89	5.066
324.10	4.562
324.31	3.719
324.52	4.556
324.73	3.702
324.93	3.662
325.14	5.811
325.35	4.505
325.56	3.808
325.77	4.900
325.98	3.950
326.19	3.808
326.39	1.580
326.60	4.493
326.81	5.791
327.02	4.298
327.23	3.948
327.44	4.737
327.64	4.107
327.85	3.464
328.06	4.007
328.27	5.734
328.48	4.260
328.69	3.135
328.90	4.792
329.10	5.025
329.31	6.206
329.52	3.998
329.73	4.895
329.94	3.734
330.15	5.932
330.35	5.222
330.56	5.210
330.77	4.592
330.98	5.921
331.19	5.488
331.39	5.811
331.60	3.918
331.81	5.879
332.02	5.384
332.23	4.252
332.44	3.560
332.64	3.417
332.85	4.721
333.06	4.972
333.27	3.109
333.48	4.625
333.68	3.362
333.89	3.812
334.10	5.403
334.31	4.814
334.52	4.652
334.72	5.500
334.93	2.532
335.14	2.847
335.35	4.280
335.56	5.936
335.76	5.136
335.97	5.919
336.18	4.700
336.39	5.347
336.60	4.482
336.80	3.833
337.01	3.639
337.22	2.730
337.43	4.329
337.64	4.864
337.84	4.457
338.05	5.729
338.26	5.171
338.47	4.765
338.68	3.381
338.88	5.079
339.09	4.968
339.30	3.747
339.51	6.155
339.71	4.444
339.92	3.561
340.13	3.103
340.34	4.357
340.55	4.824
340.75	5.844
340.96	4.072
341.17	3.938
341.38	4.515
341.58	5.366
341.79	4.764
342.00	4.883
342.21	4.748
342.41	3.403
342.62	3.350
342.83	5.282
343.04	2.898
343.24	4.386
343.45	4.470
343.66	3.654
343.87	4.635
344.07	4.123
344.28	5.091
344.49	4.586
344.70	4.664
344.90	3.606
345.11	1.888
345.32	4.182
345.53	3.611
345.73	4.235
345.94	5.548
346.15	4.553
346.36	5.540
346.56	4.770
346.77	5.613
346.98	5.226
347.19	4.919
347.39	3.965
347.60	4.753
347.81	5.292
348.02	5.209
348.22	4.955
348.43	3.934
348.64	3.714
348.84	4.873
349.05	5.265
349.26	5.701
349.47	5.753
349.67	2.624
349.88	4.880
350.09	4.251
350.30	6.684
350.50	3.655
350.71	6.204
350.92	5.878
351.12	4.405
351.33	5.198
351.54	6.572
351.74	4.921
351.95	5.475
352.16	4.772
352.37	5.328
352.57	4.506
352.78	5.106
352.99	5.513
353.19	5.782
353.40	6.473
353.61	5.570
353.82	5.509
354.02	6.584
354.23	6.213
354.44	7.416
354.64	5.481
354.85	5.204
355.06	6.478
355.26	4.678
355.47	6.496
355.68	6.332
355.88	6.192
356.09	6.067
356.30	4.166
356.51	7.551
356.71	5.740
356.92	4.898
357.13	7.396
357.33	7.364
357.54	6.153
357.75	4.716
357.95	6.231
358.16	5.709
358.37	7.532
358.57	6.247
358.78	8.875
358.99	7.161
359.19	7.016
359.40	7.143
359.61	6.009
359.81	9.021
360.02	8.729
360.23	5.561
360.43	6.283
360.64	6.271
360.85	6.841
361.05	5.946
361.26	9.072
361.47	6.383
361.67	7.558
361.88	6.929
362.09	8.238
362.29	5.558
362.50	6.691
362.70	5.731
362.91	8.248
363.12	5.742
363.32	6.963
363.53	7.848
363.74	7.727
363.94	5.847
364.15	8.787
364.36	7.655
364.56	6.160
364.77	6.906
364.98	9.837
365.18	7.984
365.39	9.294
365.59	6.123
365.80	7.247
366.01	8.781
366.21	6.839
366.42	5.371
366.63	9.336
366.83	6.750
367.04	4.810
367.24	8.788
367.45	5.466
367.66	6.098
367.86	7.108
368.07	6.677
368.28	7.312
368.48	7.066
368.69	5.749
368.89	7.024
369.10	7.647
369.31	8.425
369.51	7.143
369.72	8.983
369.92	11.008
370.13	7.892
370.34	8.878
370.54	4.978
370.75	8.789
370.95	5.910
371.16	8.290
371.37	7.219
371.57	7.318
371.78	8.161
371.98	8.778
372.19	8.281
372.40	9.561
372.60	9.158
372.81	9.057
373.01	6.464
373.22	7.422
373.43	9.501
373.63	9.172
373.84	8.410
374.04	8.076
374.25	7.847
374.46	9.373
374.66	8.974
374.87	10.383
375.07	7.341
375.28	7.653
375.48	8.926
375.69	10.052
375.90	7.655
376.10	7.212
376.31	8.912
376.51	7.336
376.72	7.510
376.92	7.472
377.13	9.408
377.34	10.440
377.54	8.494
377.75	10.725
377.95	8.465
378.16	10.604
378.36	9.626
378.57	10.950
378.77	10.555
378.98	10.048
379.19	9.813
379.39	9.769
379.60	10.229
379.80	10.930
380.01	10.819
380.21	9.259
380.42	10.782
380.62	10.716
380.83	11.195
381.04	9.645
381.24	10.695
381.45	11.729
381.65	10.014
381.86	11.558
382.06	12.028
382.27	9.796
382.47	10.309
382.68	12.710
382.88	10.326
383.09	10.734
383.29	11.185
383.50	12.918
383.71	10.965
383.91	13.525
384.12	11.652
384.32	13.930
384.53	12.589
384.73	11.926
384.94	11.801
385.14	13.523
385.35	12.611
385.55	14.027
385.76	13.087
385.96	13.086
386.17	14.384
386.37	15.051
386.58	13.528
386.78	16.236
386.99	13.507
387.19	16.084
387.40	13.611
387.60	17.066
387.81	14.782
388.01	16.758
388.22	15.363
388.42	17.615
388.63	16.223
388.83	17.696
389.04	15.568
389.24	17.315
389.45	17.371
389.65	17.013
389.86	17.297
390.06	17.937
390.27	17.738
390.47	17.063
390.68	17.944
390.88	19.952
391.09	19.707
391.29	20.468
391.50	18.638
391.70	20.182
391.91	19.915
392.11	20.904
392.32	20.147
392.52	21.982
392.73	20.780
392.93	22.396
393.14	21.716
393.34	21.866
393.55	21.378
393.75	22.990
393.95	21.658
394.16	22.505
394.36	23.204
394.57	23.393
394.77	22.818
394.98	23.609
395.18	23.920
395.39	24.696
395.59	23.148
395.80	24.604
396.00	23.885
396.21	25.256
396.41	24.918
396.61	25.473
396.82	25.287
397.02	25.898
397.23	24.720
397.43	25.787
397.64	23.564
397.84	25.773
398.05	22.979
398.25	25.737
398.45	23.803
398.66	26.435
398.86	24.702
399.07	27.173
399.27	25.315
399.48	26.352
399.68	25.830
399.89	26.039
400.09	26.925
400.29	26.111
400.50	26.988
400.70	25.806
400.91	25.750
401.11	26.471
401.32	26.027
401.52	26.052
401.72	26.505
401.93	27.864
402.13	25.814
402.34	26.174
402.54	26.827
402.75	28.308
402.95	25.379
403.15	27.616
403.36	26.749
403.56	26.758
403.77	26.224
403.97	26.731
404.17	25.609
404.38	27.152
404.58	25.705
404.79	27.062
404.99	27.221
405.19	27.273
405.40	27.044
405.60	27.155
405.81	26.154
406.01	27.144
406.21	26.928
406.42	27.710
406.62	27.456
406.83	27.375
407.03	27.429
407.23	27.663
407.44	26.422
407.64	27.462
407.85	26.580
408.05	26.944
408.25	25.537
408.46	28.165
408.66	27.552
408.87	26.879
409.07	26.823
409.27	26.417
409.48	26.916
409.68	26.552
409.88	26.262
410.09	27.621
410.29	26.719
410.50	26.977
410.70	26.135
410.90	26.639
411.11	25.462
411.31	26.287
411.51	26.530
411.72	27.838
411.92	25.721
412.12	26.622
412.33	25.759
412.53	26.481
412.74	26.116
412.94	26.618
413.14	25.898
413.35	26.763
413.55	25.617
413.75	27.513
413.96	25.617
414.16	26.048
414.36	25.646
414.57	25.870
414.77	24.831
414.97	26.767
415.18	25.418
415.38	26.355
415.58	25.666
415.79	25.937
415.99	25.758
416.19	26.273
416.40	25.632
416.60	26.162
416.80	26.321
417.01	25.931
417.21	25.119
417.41	26.310
417.62	25.600
417.82	25.264
418.02	24.894
418.23	25.751
418.43	25.676
418.63	25.634
418.84	25.337
419.04	25.587
419.24	25.433
419.45	25.893
419.65	25.613
419.85	25.218
420.06	25.366
420.26	26.001
420.46	25.667
420.67	26.161
420.87	25.626
421.07	25.183
421.28	25.437
421.48	25.223
421.68	25.223
421.88	25.433
422.09	25.839
422.29	25.332
422.49	25.297
422.70	25.326
422.90	25.453
423.10	25.155
423.31	25.876
423.51	25.527
423.71	25.190
423.91	25.205
424.12	25.376
424.32	24.994
424.52	25.126
424.73	25.008
424.93	24.836
425.13	25.118
425.33	25.083
425.54	24.875
425.74	25.144
425.94	25.055
426.15	24.862
426.35	24.898
426.55	25.349
426.75	25.826
426.96	25.895
427.16	25.107
427.36	25.057
427.57	25.377
427.77	24.755
427.97	24.780
428.17	24.748
428.38	25.443
428.58	24.723
428.78	24.782
428.98	24.596
429.19	24.588
429.39	24.464
429.59	24.509
429.79	24.289
430.00	24.254
430.20	24.094
430.40	24.641
430.60	23.384
430.81	24.074
431.01	24.250
431.21	24.463
431.41	24.339
431.62	24.630
431.82	24.105
432.02	24.706
432.22	24.159
432.43	23.947
432.63	23.925
432.83	24.410
433.03	24.327
433.24	23.763
433.44	24.138
433.64	23.837
433.84	23.719
434.05	23.483
434.25	23.689
434.45	24.188
434.65	23.750
434.85	23.919
435.06	23.912
435.26	24.169
435.46	23.975
435.66	24.119
435.87	23.417
436.07	23.810
436.27	23.666
436.47	24.112
436.67	23.406
436.88	24.374
437.08	24.336
437.28	24.152
437.48	23.548
437.69	23.549
437.89	23.550
438.09	23.338
438.29	23.630
438.49	23.998
438.70	23.593
438.90	23.242
439.10	23.811
439.30	23.403
439.50	23.286
439.71	23.572
439.91	23.271
440.11	23.832
440.31	23.874
440.51	23.264
440.72	23.161
440.92	23.648
441.12	23.656
441.32	23.064
441.52	23.586
441.72	23.362
441.93	23.478
442.13	23.240
442.33	23.593
442.53	23.810
442.73	23.429
442.94	23.637
443.14	23.669
443.34	23.610
443.54	23.097
443.74	23.436
443.94	23.141
444.15	23.239
444.35	23.359
444.55	23.156
444.75	22.893
444.95	22.955
445.15	22.605
445.36	22.953
445.56	22.647
445.76	23.056
445.96	22.667
446.16	23.010
446.36	23.469
446.57	22.889
446.77	22.479
446.97	22.744
447.17	22.965
447.37	22.909
447.57	22.945
447.77	23.040
447.98	22.957
448.18	23.053
448.38	22.786
448.58	23.030
448.78	23.184
448.98	23.105
449.18	23.077
449.39	22.948
449.59	22.591
449.79	22.642
449.99	22.894
450.19	22.860
450.39	22.601
450.59	22.527
450.79	22.607
451.00	22.882
451.20	23.400
451.40	22.907
451.60	22.604
451.80	22.477
452.00	22.184
452.20	22.275
452.40	22.758
452.61	22.331
452.81	22.232
453.01	22.471
453.21	21.903
453.41	22.251
453.61	22.149
453.81	22.479
454.01	22.272
454.21	22.299
454.42	22.103
454.62	22.023
454.82	22.290
455.02	22.378
455.22	21.660
455.42	22.016
455.62	21.877
455.82	21.823
456.02	21.145
456.23	21.922
456.43	22.170
456.63	21.854
456.83	21.732
457.03	21.678
457.23	21.203
457.43	21.452
457.63	21.177
457.83	21.697
458.03	20.749
458.23	21.588
458.43	21.104
458.64	21.357
458.84	19.937
459.04	20.908
459.24	20.509
459.44	21.064
459.64	20.618
459.84	21.142
460.04	20.847
460.24	20.670
460.44	20.517
460.64	21.021
460.84	20.736
461.04	20.779
461.24	20.958
461.45	21.058
461.65	20.976
461.85	21.199
462.05	21.084
462.25	20.948
462.45	20.704
462.65	20.821
462.85	20.165
463.05	20.736
463.25	20.415
463.45	20.613
463.65	20.259
463.85	20.204
464.05	19.638
464.25	20.311
464.45	20.168
464.65	20.082
464.85	19.868
465.05	20.033
465.26	19.647
465.46	20.002
465.66	19.422
465.86	20.036
466.06	19.341
466.26	19.767
466.46	19.208
466.66	19.276
466.86	19.175
467.06	19.317
467.26	18.896
467.46	19.432
467.66	19.173
467.86	19.335
468.06	19.210
468.26	19.633
468.46	19.664
468.66	19.901
468.86	19.374
469.06	19.165
469.26	18.603
469.46	19.322
469.66	19.317
469.86	19.034
470.06	18.493
470.26	18.985
470.46	18.561
470.66	19.140
470.86	18.834
