SpectraSuite Data File
++++++++++++++++++++++++++++++++++++
Date: Wed Sep 25 03:31:46 EST 2019
User: sgrac
Dark Spectrum Present: Yes
Reference Spectrum Present: Yes
Number of Sampled Component Spectra: 1
Spectrometers: USB4E01596
Integration Time (usec): 100000 (USB4E01596)
Spectra Averaged: 3 (USB4E01596)
Boxcar Smoothing: 0 (USB4E01596)
Correct for Electrical Dark: No (USB4E01596)
Strobe/Lamp Enabled: Yes (USB4E01596)
Correct for Detector Non-linearity: No (USB4E01596)
Correct for Stray Light: No (USB4E01596)
Number of Pixels in Processed Spectrum: 3648
>>>>>Begin Processed Spectral Data<<<<<
178.44	-480.769
178.66	-480.769
178.87	-480.769
179.09	-615.625
179.30	690.323
179.52	1443.478
179.74	-702.632
179.95	-500.000
180.17	538.776
180.38	-1103.571
180.60	-2340.000
180.82	-4977.778
181.03	827.907
181.25	-2158.333
181.46	-415.278
181.68	528.205
181.89	-1016.129
182.11	10100.000
182.33	667.308
182.54	-15500.000
182.76	743.137
182.97	928.947
183.19	1187.500
183.40	676.087
183.62	1560.000
183.84	486.905
184.05	1161.538
184.27	-2581.818
184.48	29100.000
184.70	1333.333
184.91	641.509
185.13	2750.000
185.34	584.746
185.56	429.885
185.78	1322.222
185.99	572.000
186.21	426.506
186.42	1303.571
186.64	-3288.889
186.85	873.171
187.07	-1128.000
187.28	317.708
187.50	-611.628
187.72	1590.476
187.93	1118.919
188.15	2157.143
188.36	652.083
188.58	578.333
188.79	618.750
189.01	501.639
189.22	432.258
189.44	346.226
189.65	-721.951
189.87	1110.714
190.09	309.615
190.30	340.741
190.52	-456.897
190.73	346.988
190.95	-2521.429
191.16	610.870
191.38	576.923
191.59	540.741
191.81	1894.444
192.02	-3200.000
192.24	-2881.818
192.45	409.677
192.67	-7800.000
192.88	379.070
193.10	497.059
193.31	326.230
193.53	-433.871
193.74	1690.909
193.96	-5333.333
194.18	2507.143
194.39	562.712
194.61	936.111
194.82	365.909
195.04	279.825
195.25	486.667
195.47	-29400.000
195.68	518.462
195.90	441.111
196.11	1757.143
196.33	-353.571
196.54	1339.286
196.76	537.097
196.97	227.778
197.19	265.414
197.40	-449.333
197.62	733.333
197.83	2182.353
198.05	418.750
198.26	679.167
198.48	2276.471
198.69	-874.359
198.91	464.062
199.12	-15200.000
199.34	724.390
199.55	1655.000
199.77	504.762
199.98	1671.429
200.20	428.571
200.41	332.955
200.63	426.829
200.84	773.333
201.06	261.392
201.27	-515.789
201.49	-4571.429
201.70	467.532
201.91	-4571.429
202.13	-1800.000
202.34	-915.152
202.56	1347.368
202.77	760.526
202.99	814.894
203.20	401.075
203.42	635.088
203.63	538.028
203.85	-2506.667
204.06	1436.364
204.28	-6700.000
204.49	1253.333
204.71	334.409
204.92	505.882
205.14	1987.500
205.35	1050.000
205.56	1728.571
205.78	723.636
205.99	428.049
206.21	1033.333
206.42	538.983
206.64	520.312
206.85	620.930
207.07	-889.474
207.28	489.855
207.50	854.054
207.71	1075.000
207.93	377.778
208.14	690.000
208.35	740.909
208.57	2366.667
208.78	1488.000
209.00	774.468
209.21	648.889
209.43	397.087
209.64	-2763.636
209.86	782.051
210.07	-1652.381
210.28	384.783
210.50	1905.263
210.71	279.286
210.93	478.205
211.14	390.909
211.36	-2730.000
211.57	429.167
211.78	618.000
212.00	793.617
212.21	905.405
212.43	33200.000
212.64	1102.941
212.86	625.000
213.07	1039.394
213.29	-2693.333
213.50	1000.000
213.71	1444.000
213.93	1977.778
214.14	366.087
214.36	260.127
214.57	622.951
214.78	662.745
215.00	536.765
215.21	2376.923
215.43	359.596
215.64	802.326
215.86	872.727
216.07	715.556
216.28	1204.348
216.50	350.926
216.71	531.034
216.93	934.211
217.14	367.568
217.35	1288.462
217.57	295.968
217.78	1531.579
218.00	481.395
218.21	1450.000
218.42	10533.333
218.64	361.345
218.85	757.778
219.07	524.590
219.28	287.719
219.49	1081.818
219.71	436.486
219.92	1445.000
220.14	1837.500
220.35	492.424
220.56	200.000
220.78	5500.000
220.99	436.585
221.21	256.780
221.42	746.341
221.63	605.000
221.85	767.391
222.06	271.795
222.28	886.842
222.49	717.500
222.70	357.798
222.92	453.933
223.13	484.091
223.34	302.362
223.56	471.014
223.77	484.127
223.99	1088.462
224.20	276.923
224.41	286.066
224.63	309.016
224.84	423.944
225.05	416.484
225.27	401.299
225.48	357.547
225.69	207.738
225.91	740.385
226.12	275.373
226.34	258.621
226.55	198.261
226.76	221.143
226.98	167.797
227.19	175.287
227.40	161.261
227.62	135.628
227.83	122.064
228.04	121.160
228.26	83.709
228.47	100.767
228.69	85.965
228.90	77.162
229.11	69.903
229.33	65.785
229.54	53.665
229.75	55.748
229.97	52.649
230.18	42.899
230.39	52.771
230.61	53.747
230.82	60.864
231.03	45.378
231.25	54.733
231.46	49.210
231.67	59.445
231.89	54.880
232.10	64.409
232.31	68.801
232.53	71.371
232.74	75.081
232.95	79.852
233.17	68.350
233.38	60.714
233.59	83.296
233.81	77.909
234.02	64.981
234.23	62.008
234.45	72.727
234.66	61.464
234.87	70.224
235.09	58.824
235.30	62.394
235.51	68.987
235.73	60.626
235.94	52.807
236.15	58.429
236.36	54.118
236.58	47.227
236.79	55.938
237.00	64.062
237.22	66.616
237.43	69.107
237.64	50.464
237.86	64.679
238.07	64.474
238.28	60.743
238.50	52.868
238.71	53.509
238.92	61.926
239.13	54.037
239.35	66.184
239.56	45.221
239.77	65.473
239.99	46.843
240.20	68.898
240.41	53.720
240.63	49.867
240.84	54.148
241.05	38.905
241.26	38.256
241.48	40.966
241.69	41.034
241.90	37.353
242.12	27.353
242.33	36.311
242.54	35.413
242.75	27.356
242.97	39.908
243.18	27.043
243.39	29.069
243.61	32.871
243.82	40.911
244.03	34.553
244.24	34.114
244.46	30.649
244.67	36.800
244.88	38.568
245.09	32.435
245.31	39.865
245.52	32.111
245.73	38.334
245.95	53.198
246.16	30.689
246.37	29.271
246.58	31.196
246.80	28.187
247.01	30.612
247.22	29.100
247.43	28.253
247.65	35.396
247.86	34.285
248.07	28.193
248.28	35.672
248.50	35.783
248.71	31.994
248.92	37.448
249.13	35.488
249.35	36.758
249.56	34.345
249.77	35.407
249.98	30.726
250.20	40.430
250.41	33.043
250.62	41.800
250.83	30.932
251.05	37.914
251.26	28.458
251.47	32.111
251.68	30.432
251.90	25.214
252.11	34.917
252.32	31.926
252.53	38.449
252.75	27.062
252.96	30.014
253.17	29.341
253.38	26.646
253.59	30.245
253.81	27.700
254.02	26.885
254.23	29.372
254.44	29.669
254.66	30.202
254.87	34.989
255.08	30.779
255.29	33.243
255.50	30.054
255.72	34.135
255.93	36.062
256.14	41.089
256.35	29.045
256.57	31.148
256.78	28.077
256.99	30.039
257.20	38.982
257.41	33.090
257.63	34.669
257.84	32.642
258.05	28.603
258.26	27.821
258.47	30.632
258.69	24.170
258.90	20.431
259.11	33.186
259.32	26.542
259.53	27.649
259.75	24.897
259.96	25.007
260.17	23.455
260.38	29.803
260.59	26.856
260.81	29.826
261.02	29.301
261.23	32.589
261.44	31.018
261.65	33.777
261.87	30.883
262.08	33.057
262.29	34.234
262.50	30.443
262.71	26.637
262.92	34.351
263.14	26.449
263.35	27.523
263.56	29.062
263.77	30.107
263.98	23.537
264.20	29.237
264.41	20.371
264.62	25.109
264.83	22.357
265.04	31.120
265.25	21.564
265.47	25.969
265.68	27.848
265.89	22.742
266.10	25.685
266.31	30.667
266.52	23.451
266.74	26.527
266.95	23.597
267.16	24.515
267.37	27.169
267.58	24.508
267.79	22.500
268.01	27.810
268.22	25.337
268.43	28.440
268.64	32.368
268.85	25.858
269.06	21.707
269.27	31.903
269.49	26.506
269.70	26.918
269.91	27.155
270.12	26.983
270.33	26.970
270.54	24.856
270.75	23.240
270.97	26.907
271.18	21.387
271.39	22.763
271.60	29.796
271.81	25.775
272.02	24.801
272.23	26.709
272.45	21.942
272.66	25.704
272.87	23.995
273.08	26.782
273.29	27.157
273.50	26.477
273.71	24.458
273.92	26.078
274.14	26.138
274.35	28.940
274.56	29.083
274.77	27.624
274.98	26.230
275.19	25.453
275.40	21.640
275.61	22.781
275.83	27.625
276.04	30.183
276.25	26.767
276.46	30.361
276.67	31.857
276.88	28.353
277.09	25.801
277.30	29.839
277.51	25.541
277.73	25.800
277.94	21.866
278.15	28.646
278.36	30.634
278.57	24.357
278.78	24.396
278.99	26.379
279.20	24.144
279.41	28.789
279.62	21.039
279.84	23.614
280.05	21.960
280.26	21.930
280.47	26.006
280.68	26.616
280.89	24.197
281.10	25.514
281.31	23.873
281.52	26.979
281.73	18.557
281.94	21.427
282.16	22.774
282.37	24.009
282.58	20.326
282.79	28.546
283.00	26.558
283.21	22.374
283.42	23.323
283.63	24.316
283.84	22.642
284.05	24.272
284.26	22.122
284.47	23.491
284.68	24.375
284.89	23.342
285.11	22.891
285.32	23.219
285.53	21.584
285.74	26.560
285.95	25.759
286.16	25.655
286.37	23.959
286.58	25.183
286.79	23.020
287.00	25.004
287.21	22.342
287.42	23.781
287.63	22.363
287.84	24.707
288.05	25.063
288.26	24.177
288.48	25.567
288.69	22.834
288.90	22.714
289.11	28.049
289.32	24.835
289.53	22.487
289.74	16.802
289.95	20.086
290.16	24.053
290.37	21.793
290.58	19.353
290.79	20.983
291.00	20.588
291.21	20.277
291.42	19.723
291.63	20.938
291.84	23.385
292.05	21.284
292.26	20.830
292.47	22.025
292.68	19.577
292.89	24.580
293.10	20.777
293.31	21.660
293.52	17.154
293.73	19.428
293.94	20.818
294.15	18.961
294.36	19.760
294.57	22.571
294.79	20.530
295.00	16.865
295.21	22.974
295.42	22.086
295.63	20.628
295.84	17.809
296.05	16.432
296.26	19.946
296.47	19.296
296.68	22.372
296.89	21.926
297.10	21.857
297.31	19.474
297.52	19.439
297.73	19.820
297.94	20.447
298.15	19.816
298.36	21.096
298.57	19.036
298.78	21.948
298.99	18.353
299.20	21.491
299.41	22.148
299.62	21.910
299.83	18.088
300.04	24.066
300.25	22.184
300.46	22.542
300.67	22.813
300.88	22.679
301.09	14.612
301.30	21.108
301.50	16.600
301.71	23.311
301.92	22.805
302.13	17.172
302.34	19.027
302.55	19.138
302.76	19.595
302.97	19.201
303.18	21.005
303.39	17.092
303.60	18.464
303.81	21.006
304.02	16.737
304.23	16.667
304.44	14.733
304.65	19.711
304.86	20.253
305.07	19.528
305.28	18.838
305.49	22.295
305.70	20.720
305.91	15.478
306.12	19.127
306.33	18.584
306.54	18.441
306.75	18.231
306.96	24.559
307.17	19.892
307.38	18.254
307.58	18.365
307.79	18.250
308.00	16.976
308.21	16.214
308.42	18.655
308.63	18.198
308.84	16.924
309.05	16.653
309.26	17.409
309.47	17.126
309.68	17.400
309.89	17.988
310.10	15.548
310.31	17.637
310.52	17.170
310.73	20.043
310.94	17.140
311.14	16.154
311.35	18.385
311.56	17.310
311.77	17.050
311.98	17.037
312.19	17.506
312.40	15.080
312.61	18.154
312.82	18.856
313.03	18.555
313.24	17.387
313.45	22.316
313.66	16.976
313.86	20.571
314.07	16.984
314.28	20.089
314.49	15.950
314.70	18.860
314.91	21.128
315.12	18.890
315.33	18.201
315.54	15.232
315.75	14.905
315.96	15.896
316.16	13.608
316.37	19.739
316.58	16.158
316.79	18.492
317.00	20.825
317.21	18.351
317.42	16.629
317.63	18.115
317.84	18.911
318.05	18.496
318.25	17.927
318.46	17.800
318.67	17.110
318.88	19.406
319.09	19.432
319.30	14.834
319.51	16.016
319.72	16.933
319.93	15.383
320.13	15.358
320.34	16.945
320.55	18.400
320.76	17.672
320.97	18.987
321.18	20.667
321.39	17.383
321.60	15.349
321.80	21.065
322.01	18.498
322.22	18.192
322.43	14.979
322.64	13.794
322.85	17.554
323.06	19.964
323.27	17.168
323.47	17.361
323.68	16.483
323.89	15.279
324.10	16.782
324.31	14.094
324.52	17.140
324.73	17.943
324.93	15.762
325.14	18.986
325.35	18.266
325.56	17.660
325.77	18.327
325.98	16.108
326.19	16.512
326.39	13.030
326.60	16.822
326.81	16.987
327.02	14.559
327.23	16.562
327.44	21.318
327.64	13.511
327.85	13.448
328.06	19.798
328.27	20.681
328.48	18.546
328.69	14.108
328.90	16.902
329.10	15.351
329.31	18.253
329.52	15.640
329.73	20.090
329.94	14.776
330.15	18.973
330.35	17.299
330.56	17.542
330.77	16.825
330.98	16.720
331.19	16.402
331.39	15.759
331.60	15.451
331.81	16.182
332.02	16.646
332.23	14.667
332.44	13.954
332.64	16.428
332.85	15.717
333.06	18.334
333.27	12.693
333.48	17.751
333.68	15.426
333.89	16.127
334.10	15.285
334.31	19.052
334.52	15.189
334.72	17.449
334.93	15.115
335.14	15.255
335.35	15.060
335.56	19.993
335.76	14.169
335.97	18.519
336.18	14.539
336.39	21.084
336.60	18.055
336.80	16.234
337.01	15.752
337.22	16.873
337.43	16.910
337.64	21.081
337.84	18.309
338.05	18.132
338.26	19.087
338.47	20.620
338.68	13.347
338.88	19.691
339.09	16.836
339.30	18.529
339.51	19.261
339.71	20.086
339.92	14.904
340.13	18.567
340.34	16.885
340.55	18.217
340.75	17.422
340.96	16.605
341.17	20.226
341.38	16.968
341.58	19.200
341.79	18.607
342.00	15.961
342.21	18.808
342.41	16.509
342.62	18.791
342.83	22.086
343.04	16.453
343.24	19.308
343.45	21.967
343.66	19.074
343.87	20.438
344.07	17.866
344.28	21.420
344.49	20.084
344.70	24.374
344.90	18.491
345.11	18.645
345.32	19.944
345.53	20.926
345.73	19.639
345.94	24.102
346.15	23.786
346.36	22.388
346.56	23.611
346.77	23.912
346.98	22.865
347.19	24.889
347.39	21.107
347.60	23.704
347.81	22.973
348.02	24.392
348.22	21.541
348.43	24.534
348.64	21.415
348.84	23.823
349.05	23.548
349.26	27.703
349.47	21.572
349.67	23.081
349.88	25.804
350.09	25.020
350.30	27.171
350.50	25.338
350.71	26.217
350.92	26.275
351.12	23.124
351.33	27.715
351.54	25.603
351.74	26.845
351.95	24.355
352.16	27.394
352.37	27.263
352.57	26.268
352.78	25.151
352.99	26.899
353.19	26.250
353.40	28.209
353.61	27.769
353.82	27.013
354.02	27.068
354.23	28.664
354.44	30.437
354.64	26.703
354.85	27.505
355.06	27.335
355.26	25.864
355.47	28.528
355.68	30.101
355.88	30.085
356.09	28.949
356.30	27.901
356.51	29.887
356.71	29.738
356.92	26.354
357.13	31.227
357.33	30.289
357.54	29.106
357.75	27.160
357.95	31.749
358.16	27.858
358.37	31.933
358.57	27.716
358.78	32.137
358.99	30.191
359.19	30.262
359.40	31.329
359.61	30.259
359.81	31.599
360.02	32.115
360.23	28.736
360.43	30.188
360.64	29.420
360.85	30.569
361.05	28.676
361.26	32.438
361.47	28.434
361.67	30.459
361.88	27.827
362.09	29.690
362.29	27.917
362.50	30.935
362.70	29.202
362.91	31.068
363.12	29.598
363.32	30.786
363.53	30.233
363.74	31.391
363.94	29.821
364.15	32.878
364.36	30.012
364.56	31.132
364.77	31.136
364.98	32.719
365.18	29.638
365.39	31.845
365.59	28.664
365.80	30.910
366.01	29.265
366.21	30.766
366.42	29.053
366.63	32.030
366.83	29.794
367.04	28.166
367.24	30.686
367.45	28.560
367.66	28.507
367.86	30.633
368.07	29.415
368.28	29.882
368.48	29.519
368.69	29.318
368.89	31.054
369.10	30.477
369.31	30.138
369.51	30.800
369.72	31.604
369.92	33.488
370.13	27.710
370.34	30.370
370.54	26.114
370.75	30.635
370.95	27.760
371.16	29.911
371.37	28.024
371.57	29.329
371.78	29.485
371.98	30.958
372.19	28.979
372.40	30.380
372.60	30.110
372.81	29.653
373.01	27.773
373.22	31.013
373.43	31.292
373.63	30.583
373.84	29.697
374.04	29.241
374.25	29.524
374.46	31.445
374.66	31.392
374.87	31.246
375.07	28.483
375.28	28.794
375.48	30.455
375.69	32.010
375.90	28.361
376.10	29.041
376.31	28.675
376.51	29.012
376.72	28.694
376.92	29.623
377.13	29.724
377.34	30.855
377.54	29.627
377.75	30.847
377.95	29.392
378.16	30.642
378.36	28.897
378.57	29.931
378.77	29.573
378.98	30.843
379.19	30.644
379.39	30.928
379.60	30.286
379.80	31.736
380.01	31.248
380.21	29.970
380.42	29.870
380.62	30.168
380.83	31.299
381.04	29.684
381.24	30.289
381.45	30.934
381.65	29.645
381.86	31.711
382.06	30.237
382.27	31.017
382.47	30.275
382.68	30.649
382.88	29.680
383.09	29.934
383.29	30.372
383.50	31.227
383.71	30.548
383.91	31.716
384.12	30.542
384.32	32.485
384.53	30.863
384.73	30.255
384.94	30.043
385.14	30.447
385.35	30.780
385.55	30.755
385.76	29.886
385.96	31.368
386.17	32.168
386.37	31.589
386.58	31.634
386.78	32.135
386.99	30.718
387.19	31.946
387.40	31.014
387.60	32.362
387.81	31.343
388.01	31.824
388.22	31.992
388.42	32.327
388.63	31.726
388.83	31.978
389.04	31.466
389.24	32.456
389.45	32.002
389.65	31.673
389.86	31.617
390.06	33.123
390.27	30.906
390.47	32.410
390.68	31.418
390.88	32.714
391.09	32.369
391.29	33.031
391.50	31.886
391.70	31.779
391.91	32.370
392.11	31.856
392.32	32.211
392.52	32.403
392.73	32.648
392.93	33.381
393.14	32.782
393.34	33.488
393.55	32.660
393.75	32.505
393.95	32.156
394.16	32.859
394.36	32.415
394.57	33.298
394.77	32.776
394.98	33.532
395.18	33.441
395.39	34.157
395.59	33.217
395.80	33.445
396.00	33.367
396.21	33.641
396.41	32.867
396.61	34.852
396.82	32.574
397.02	33.905
397.23	33.052
397.43	33.720
397.64	32.261
397.84	34.378
398.05	32.228
398.25	32.685
398.45	32.288
398.66	33.398
398.86	32.465
399.07	34.037
399.27	32.709
399.48	31.830
399.68	32.297
399.89	32.867
400.09	33.244
400.29	33.339
400.50	33.036
400.70	32.419
400.91	32.012
401.11	32.657
401.32	32.946
401.52	33.034
401.72	32.983
401.93	34.357
402.13	32.187
402.34	33.025
402.54	31.946
402.75	33.469
402.95	32.004
403.15	33.133
403.36	31.838
403.56	31.324
403.77	32.393
403.97	32.035
404.17	31.288
404.38	31.267
404.58	31.818
404.79	32.008
404.99	31.532
405.19	32.140
405.40	31.146
405.60	31.889
405.81	31.500
406.01	32.581
406.21	31.667
406.42	32.518
406.62	32.065
406.83	32.031
407.03	32.302
407.23	32.619
407.44	32.304
407.64	32.558
407.85	31.604
408.05	32.130
408.25	31.250
408.46	32.627
408.66	32.810
408.87	32.577
409.07	31.638
409.27	31.452
409.48	31.123
409.68	31.574
409.88	30.386
410.09	31.119
410.29	30.967
410.50	32.033
410.70	30.645
410.90	31.078
411.11	30.493
411.31	30.683
411.51	30.755
411.72	31.416
411.92	30.446
412.12	31.347
412.33	30.629
412.53	31.606
412.74	30.533
412.94	32.230
413.14	31.175
413.35	30.938
413.55	30.881
413.75	31.819
413.96	30.485
414.16	30.641
414.36	29.069
414.57	30.470
414.77	29.490
414.97	31.505
415.18	30.268
415.38	29.708
415.58	29.962
415.79	30.613
415.99	29.515
416.19	30.362
416.40	29.840
416.60	30.380
416.80	28.851
417.01	29.876
417.21	29.299
417.41	29.492
417.62	29.356
417.82	28.900
418.02	29.100
418.23	29.150
418.43	29.096
418.63	29.647
418.84	29.141
419.04	29.267
419.24	29.134
419.45	29.369
419.65	29.042
419.85	28.885
420.06	29.012
420.26	28.356
420.46	28.873
420.67	28.778
420.87	28.693
421.07	28.884
421.28	28.720
421.48	28.760
421.68	28.742
421.88	28.882
422.09	28.824
422.29	29.093
422.49	28.216
422.70	28.998
422.90	28.816
423.10	29.074
423.31	28.867
423.51	29.496
423.71	28.421
423.91	28.612
424.12	28.174
424.32	28.551
424.52	28.190
424.73	28.332
424.93	28.340
425.13	27.999
425.33	28.253
425.54	28.676
425.74	28.437
425.94	29.213
426.15	28.565
426.35	28.917
426.55	28.763
426.75	29.742
426.96	28.719
427.16	28.588
427.36	29.302
427.57	29.737
427.77	28.958
427.97	29.302
428.17	28.880
428.38	29.479
428.58	28.755
428.78	29.248
428.98	28.748
429.19	28.794
429.39	28.572
429.59	28.944
429.79	28.254
430.00	28.206
430.20	28.000
430.40	28.838
430.60	27.091
430.81	28.272
431.01	28.474
431.21	28.540
431.41	28.372
431.62	28.657
431.82	28.066
432.02	28.718
432.22	27.616
432.43	28.086
432.63	28.071
432.83	27.996
433.03	27.467
433.24	27.836
433.44	26.940
433.64	28.047
433.84	27.863
434.05	27.749
434.25	27.403
434.45	27.793
434.65	27.877
434.85	28.140
435.06	27.753
435.26	28.117
435.46	28.312
435.66	28.860
435.87	27.825
436.07	28.658
436.27	27.991
436.47	28.441
436.67	27.929
436.88	28.362
437.08	28.078
437.28	28.002
437.48	27.691
437.69	28.438
437.89	28.038
438.09	27.637
438.29	27.559
438.49	27.924
438.70	27.543
438.90	27.586
439.10	27.651
439.30	27.693
439.50	27.607
439.71	27.721
439.91	27.453
440.11	27.206
440.31	27.123
440.51	27.475
440.72	26.945
440.92	27.458
441.12	27.548
441.32	27.561
441.52	27.886
441.72	27.838
441.93	27.481
442.13	27.937
442.33	28.026
442.53	28.246
442.73	28.235
442.94	28.261
443.14	28.029
443.34	28.495
443.54	27.431
443.74	28.135
443.94	27.423
444.15	27.757
444.35	27.279
444.55	27.314
444.75	27.351
444.95	27.204
445.15	26.868
445.36	26.688
445.56	26.534
445.76	27.534
445.96	26.656
446.16	27.308
446.36	26.814
446.57	26.915
446.77	26.825
446.97	27.047
447.17	26.476
447.37	27.419
447.57	27.111
447.77	27.686
447.98	27.554
448.18	27.397
448.38	27.633
448.58	28.331
448.78	27.909
448.98	28.083
449.18	27.932
449.39	27.552
449.59	27.672
449.79	28.322
449.99	27.953
450.19	28.409
450.39	28.234
450.59	27.679
450.79	27.710
451.00	28.227
451.20	28.714
451.40	27.971
451.60	27.488
451.80	27.627
452.00	26.911
452.20	27.671
452.40	27.486
452.61	27.795
452.81	27.295
453.01	27.022
453.21	27.040
453.41	27.807
453.61	26.761
453.81	27.287
454.01	27.488
454.21	27.596
454.42	27.705
454.62	27.734
454.82	27.248
455.02	27.741
455.22	27.390
455.42	27.687
455.62	27.614
455.82	26.989
456.02	26.739
456.23	27.563
456.43	27.731
456.63	27.629
456.83	27.624
457.03	26.830
457.23	26.854
457.43	27.556
457.63	27.108
457.83	27.443
458.03	26.341
458.23	27.099
458.43	26.893
458.64	26.752
458.84	26.437
459.04	26.315
459.24	26.671
459.44	26.232
459.64	26.132
459.84	25.928
460.04	25.814
460.24	26.548
460.44	26.527
460.64	26.947
460.84	26.602
461.04	27.069
461.24	26.807
461.45	26.939
461.65	27.155
