SpectraSuite Data File
++++++++++++++++++++++++++++++++++++
Date: Wed Sep 25 03:53:51 EST 2019
User: sgrac
Dark Spectrum Present: Yes
Reference Spectrum Present: Yes
Number of Sampled Component Spectra: 1
Spectrometers: USB4E01596
Integration Time (usec): 100000 (USB4E01596)
Spectra Averaged: 3 (USB4E01596)
Boxcar Smoothing: 0 (USB4E01596)
Correct for Electrical Dark: No (USB4E01596)
Strobe/Lamp Enabled: Yes (USB4E01596)
Correct for Detector Non-linearity: No (USB4E01596)
Correct for Stray Light: No (USB4E01596)
Number of Pixels in Processed Spectrum: 3648
>>>>>Begin Processed Spectral Data<<<<<
178.44	-398.077
178.66	-398.077
178.87	-398.077
179.09	-837.500
179.30	961.290
179.52	1204.348
179.74	-884.211
179.95	-592.593
180.17	583.673
180.38	-1375.000
180.60	-2353.333
180.82	-4266.667
181.03	1011.628
181.25	-2183.333
181.46	-452.778
181.68	525.641
181.89	-958.065
182.11	9466.667
182.33	778.846
182.54	-17650.000
182.76	741.176
182.97	963.158
183.19	1337.500
183.40	789.130
183.62	1575.000
183.84	473.810
184.05	1207.692
184.27	-3236.364
184.48	30500.000
184.70	1307.407
184.91	547.170
185.13	2871.429
185.34	601.695
185.56	445.977
185.78	1311.111
185.99	644.000
186.21	451.807
186.42	1410.714
186.64	-3566.667
186.85	902.439
187.07	-1304.000
187.28	395.833
187.50	-688.372
187.72	1847.619
187.93	1329.730
188.15	2585.714
188.36	872.917
188.58	631.667
188.79	717.188
189.01	603.279
189.22	398.925
189.44	425.472
189.65	-800.000
189.87	1357.143
190.09	447.115
190.30	424.074
190.52	-377.586
190.73	336.145
190.95	-2571.429
191.16	863.043
191.38	640.385
191.59	545.679
191.81	2122.222
192.02	-3208.333
192.24	-2972.727
192.45	462.903
192.67	-7080.000
192.88	439.535
193.10	564.706
193.31	282.787
193.53	-430.645
193.74	1963.636
193.96	-6216.667
194.18	2457.143
194.39	591.525
194.61	1166.667
194.82	425.000
195.04	333.333
195.25	613.333
195.47	-33900.000
195.68	501.538
195.90	505.556
196.11	1766.667
196.33	-386.905
196.54	1275.000
196.76	569.355
196.97	245.679
197.19	334.586
197.40	-482.667
197.62	906.250
197.83	1923.529
198.05	492.500
198.26	720.833
198.48	2352.941
198.69	-902.564
198.91	575.000
199.12	-18200.000
199.34	760.976
199.55	1730.000
199.77	639.683
199.98	1528.571
200.20	491.667
200.41	393.182
200.63	507.317
200.84	780.000
201.06	270.253
201.27	-591.228
201.49	-4600.000
201.70	528.571
201.91	-4885.714
202.13	-1900.000
202.34	-921.212
202.56	1705.263
202.77	910.526
202.99	948.936
203.20	418.280
203.42	812.281
203.63	491.549
203.85	-2486.667
204.06	1631.818
204.28	-7680.000
204.49	1466.667
204.71	393.548
204.92	636.765
205.14	2625.000
205.35	1134.375
205.56	1857.143
205.78	767.273
205.99	502.439
206.21	1056.410
206.42	628.814
206.64	556.250
206.85	737.209
207.07	-944.737
207.28	452.174
207.50	1056.757
207.71	1000.000
207.93	420.202
208.14	716.000
208.35	843.182
208.57	2546.667
208.78	1640.000
209.00	812.766
209.21	764.444
209.43	416.505
209.64	-4009.091
209.86	817.949
210.07	-1947.619
210.28	386.957
210.50	1589.474
210.71	333.571
210.93	571.795
211.14	393.636
211.36	-3190.000
211.57	554.167
211.78	794.000
212.00	731.915
212.21	867.568
212.43	34300.000
212.64	1214.706
212.86	597.917
213.07	1221.212
213.29	-2580.000
213.50	1122.581
213.71	1472.000
213.93	2011.111
214.14	379.130
214.36	268.354
214.57	495.082
214.78	688.235
215.00	558.824
215.21	1700.000
215.43	366.667
215.64	730.233
215.86	893.939
216.07	744.444
216.28	1443.478
216.50	430.556
216.71	606.897
216.93	1118.421
217.14	356.757
217.35	1319.231
217.57	282.258
217.78	1436.842
218.00	479.070
218.21	1670.000
218.42	11266.667
218.64	347.059
218.85	882.222
219.07	659.016
219.28	299.123
219.49	1154.545
219.71	422.973
219.92	1780.000
220.14	2156.250
220.35	586.364
220.56	252.903
220.78	6520.000
220.99	469.512
221.21	308.475
221.42	792.683
221.63	545.000
221.85	732.609
222.06	270.940
222.28	947.368
222.49	747.500
222.70	311.009
222.92	430.337
223.13	468.182
223.34	283.465
223.56	475.362
223.77	460.317
223.99	1515.385
224.20	281.119
224.41	252.459
224.63	306.557
224.84	436.620
225.05	383.516
225.27	453.247
225.48	336.792
225.69	246.429
225.91	730.769
226.12	319.403
226.34	250.345
226.55	272.174
226.76	235.429
226.98	169.492
227.19	184.483
227.40	161.261
227.62	160.324
227.83	119.573
228.04	119.795
228.26	88.972
228.47	93.095
228.69	81.955
228.90	57.428
229.11	61.359
229.33	53.966
229.54	52.559
229.75	44.747
229.97	40.812
230.18	36.489
230.39	31.990
230.61	45.182
230.82	44.743
231.03	34.694
231.25	42.329
231.46	41.312
231.67	51.255
231.89	55.304
232.10	51.527
232.31	55.993
232.53	66.129
232.74	61.489
232.95	65.434
233.17	61.748
233.38	52.068
233.59	72.160
233.81	72.584
234.02	72.568
234.23	66.142
234.45	62.937
234.66	69.364
234.87	79.174
235.09	68.266
235.30	63.239
235.51	60.601
235.73	57.496
235.94	51.138
236.15	55.155
236.36	56.639
236.58	42.185
236.79	59.375
237.00	58.594
237.22	64.955
237.43	50.805
237.64	52.167
237.86	58.104
238.07	66.353
238.28	56.220
238.50	43.101
238.71	52.924
238.92	59.259
239.13	54.503
239.35	54.911
239.56	35.521
239.77	63.683
239.99	45.081
240.20	67.922
240.41	48.802
240.63	52.533
240.84	48.690
241.05	38.232
241.26	26.858
241.48	38.052
241.69	28.837
241.90	27.330
242.12	17.258
242.33	25.846
242.54	22.646
242.75	21.756
242.97	22.528
243.18	16.581
243.39	17.247
243.61	17.780
243.82	18.305
244.03	14.453
244.24	19.108
244.46	19.696
244.67	19.019
244.88	20.106
245.09	22.037
245.31	24.818
245.52	20.926
245.73	29.533
245.95	42.493
246.16	21.367
246.37	21.185
246.58	20.394
246.80	17.512
247.01	17.633
247.22	14.751
247.43	10.022
247.65	11.202
247.86	12.727
248.07	9.421
248.28	10.342
248.50	9.226
248.71	9.612
248.92	7.863
249.13	10.982
249.35	10.048
249.56	12.593
249.77	11.127
249.98	11.781
250.20	14.944
250.41	13.312
250.62	17.386
250.83	19.458
251.05	23.220
251.26	19.958
251.47	19.511
251.68	24.380
251.90	17.953
252.11	23.011
252.32	21.267
252.53	21.150
252.75	18.717
252.96	14.054
253.17	16.114
253.38	20.715
253.59	15.997
253.81	16.857
254.02	16.880
254.23	16.025
254.44	18.674
254.66	21.409
254.87	22.404
255.08	22.492
255.29	22.774
255.50	30.733
255.72	26.541
255.93	28.108
256.14	25.056
256.35	28.505
256.57	25.445
256.78	24.343
256.99	24.869
257.20	27.345
257.41	28.714
257.63	22.979
257.84	22.579
258.05	22.434
258.26	20.950
258.47	24.743
258.69	17.220
258.90	16.120
259.11	20.361
259.32	16.565
259.53	12.986
259.75	12.862
259.96	10.602
260.17	9.077
260.38	10.637
260.59	7.694
260.81	6.035
261.02	7.504
261.23	8.290
261.44	9.325
261.65	8.294
261.87	6.165
262.08	6.628
262.29	10.946
262.50	7.389
262.71	8.550
262.92	11.983
263.14	11.175
263.35	9.413
263.56	14.239
263.77	16.661
263.98	11.957
264.20	10.804
264.41	14.713
264.62	15.883
264.83	15.143
265.04	20.099
265.25	13.744
265.47	19.926
265.68	16.925
265.89	16.906
266.10	15.402
266.31	16.552
266.52	16.674
266.74	17.958
266.95	16.100
267.16	13.022
267.37	13.995
267.58	11.690
267.79	11.959
268.01	11.242
268.22	10.256
268.43	12.706
268.64	13.458
268.85	10.940
269.06	10.742
269.27	14.428
269.49	12.282
269.70	11.863
269.91	12.504
270.12	13.195
270.33	12.072
270.54	11.817
270.75	11.985
270.97	12.248
271.18	11.406
271.39	10.518
271.60	15.815
271.81	11.703
272.02	9.801
272.23	11.271
272.45	9.318
272.66	9.888
272.87	9.822
273.08	10.083
273.29	9.160
273.50	8.435
273.71	8.749
273.92	10.169
274.14	10.390
274.35	9.266
274.56	9.830
274.77	7.779
274.98	9.730
275.19	11.137
275.40	10.059
275.61	11.264
275.83	12.427
276.04	11.224
276.25	9.879
276.46	10.812
276.67	13.477
276.88	11.790
277.09	9.649
277.30	12.420
277.51	10.820
277.73	10.634
277.94	12.100
278.15	10.708
278.36	14.101
278.57	11.566
278.78	12.611
278.99	10.293
279.20	11.931
279.41	15.516
279.62	11.001
279.84	12.560
280.05	12.006
280.26	11.057
280.47	11.352
280.68	13.813
280.89	12.574
281.10	12.943
281.31	10.040
281.52	12.166
281.73	9.251
281.94	8.683
282.16	11.925
282.37	9.656
282.58	8.569
282.79	10.025
283.00	11.583
283.21	7.944
283.42	8.473
283.63	10.136
283.84	8.637
284.05	7.801
284.26	9.856
284.47	9.057
284.68	8.744
284.89	9.031
285.11	9.975
285.32	7.769
285.53	8.353
285.74	8.437
285.95	8.498
286.16	6.734
286.37	8.574
286.58	9.004
286.79	6.464
287.00	9.138
287.21	6.785
287.42	8.190
287.63	7.181
287.84	6.767
288.05	7.826
288.26	8.541
288.48	8.074
288.69	8.125
288.90	8.039
289.11	9.120
289.32	9.346
289.53	8.333
289.74	7.490
289.95	6.903
290.16	8.945
290.37	7.400
290.58	7.598
290.79	8.639
291.00	7.796
291.21	6.421
291.42	8.291
291.63	6.210
291.84	7.281
292.05	6.887
292.26	6.910
292.47	8.716
292.68	8.639
292.89	9.853
293.10	7.664
293.31	6.872
293.52	8.622
293.73	8.554
293.94	9.941
294.15	8.938
294.36	8.126
294.57	10.613
294.79	8.079
295.00	7.167
295.21	10.050
295.42	7.390
295.63	9.906
295.84	7.595
296.05	7.121
296.26	8.097
296.47	6.660
296.68	8.125
296.89	7.850
297.10	6.139
297.31	7.197
297.52	7.593
297.73	5.903
297.94	5.411
298.15	5.973
298.36	6.838
298.57	4.443
298.78	6.133
298.99	5.614
299.20	5.182
299.41	7.398
299.62	6.352
299.83	6.085
300.04	7.371
300.25	6.494
300.46	8.167
300.67	7.535
300.88	8.664
301.09	7.078
301.30	8.150
301.50	7.358
301.71	8.308
301.92	9.426
302.13	7.339
302.34	7.562
302.55	7.851
302.76	7.152
302.97	8.156
303.18	8.754
303.39	8.371
303.60	9.140
303.81	10.126
304.02	6.657
304.23	7.574
304.44	8.495
304.65	9.353
304.86	7.649
305.07	7.508
305.28	9.070
305.49	9.150
305.70	7.984
305.91	6.233
306.12	9.146
306.33	8.309
306.54	8.310
306.75	9.148
306.96	11.071
307.17	8.104
307.38	9.194
307.58	11.377
307.79	8.186
308.00	7.616
308.21	7.906
308.42	6.548
308.63	8.766
308.84	7.617
309.05	6.632
309.26	6.562
309.47	6.943
309.68	7.148
309.89	7.583
310.10	5.447
310.31	6.288
310.52	5.948
310.73	7.750
310.94	5.514
311.14	6.253
311.35	6.687
311.56	7.056
311.77	6.439
311.98	6.364
312.19	5.183
312.40	7.135
312.61	5.831
312.82	7.281
313.03	5.136
313.24	7.012
313.45	5.722
313.66	7.152
313.86	8.195
314.07	5.963
314.28	8.427
314.49	6.984
314.70	6.559
314.91	10.523
315.12	8.195
315.33	7.916
315.54	7.595
315.75	7.933
315.96	8.509
316.16	7.612
316.37	8.256
316.58	8.650
316.79	9.005
317.00	7.810
317.21	9.658
317.42	6.173
317.63	7.910
317.84	8.229
318.05	8.321
318.25	10.364
318.46	8.144
318.67	8.029
318.88	9.072
319.09	8.050
319.30	8.498
319.51	8.292
319.72	9.118
319.93	6.851
320.13	7.487
320.34	8.011
320.55	8.000
320.76	9.962
320.97	8.877
321.18	10.819
321.39	8.168
321.60	8.915
321.80	10.036
322.01	9.850
322.22	8.542
322.43	7.351
322.64	9.581
322.85	8.666
323.06	9.869
323.27	8.867
323.47	9.696
323.68	8.543
323.89	8.101
324.10	7.821
324.31	6.377
324.52	8.343
324.73	5.630
324.93	7.249
325.14	8.105
325.35	6.221
325.56	7.138
325.77	8.688
325.98	6.777
326.19	8.079
326.39	4.312
326.60	6.776
326.81	6.176
327.02	7.199
327.23	6.280
327.44	7.822
327.64	6.071
327.85	6.093
328.06	7.463
328.27	8.115
328.48	6.904
328.69	5.467
328.90	7.187
329.10	7.478
329.31	9.079
329.52	6.553
329.73	8.464
329.94	7.327
330.15	7.529
330.35	8.262
330.56	8.487
330.77	7.990
330.98	8.290
331.19	7.805
331.39	9.403
331.60	8.355
331.81	6.294
332.02	8.870
332.23	7.662
332.44	6.794
332.64	6.158
332.85	7.689
333.06	8.060
333.27	6.515
333.48	7.407
333.68	6.079
333.89	5.776
334.10	9.030
334.31	6.916
334.52	6.930
334.72	7.668
334.93	5.585
335.14	6.642
335.35	8.469
335.56	7.091
335.76	7.412
335.97	8.115
336.18	7.279
336.39	7.382
336.60	7.500
336.80	6.059
337.01	7.967
337.22	5.867
337.43	5.719
337.64	7.663
337.84	7.530
338.05	7.139
338.26	8.208
338.47	7.503
338.68	6.391
338.88	7.384
339.09	6.987
339.30	6.061
339.51	7.386
339.71	7.201
339.92	7.158
340.13	5.923
340.34	7.516
340.55	7.123
340.75	7.209
340.96	6.134
341.17	8.116
341.38	6.756
341.58	8.785
341.79	7.086
342.00	6.857
342.21	7.493
342.41	6.400
342.62	6.364
342.83	6.947
343.04	5.462
343.24	6.282
343.45	6.979
343.66	7.258
343.87	7.435
344.07	5.955
344.28	6.739
344.49	6.872
344.70	7.897
344.90	4.898
345.11	5.824
345.32	6.601
345.53	6.954
345.73	5.547
345.94	5.668
346.15	5.695
346.36	5.784
346.56	7.266
346.77	5.982
346.98	5.986
347.19	5.526
347.39	5.323
347.60	6.414
347.81	6.848
348.02	7.470
348.22	5.228
348.43	7.081
348.64	6.720
348.84	6.190
349.05	5.855
349.26	7.661
349.47	7.207
349.67	5.297
349.88	6.075
350.09	5.479
350.30	7.618
350.50	5.313
350.71	7.090
350.92	6.878
351.12	5.883
351.33	6.706
351.54	6.946
351.74	6.645
351.95	6.085
352.16	4.803
352.37	6.569
352.57	5.213
352.78	7.184
352.99	7.070
353.19	6.292
353.40	6.330
353.61	5.927
353.82	6.529
354.02	6.600
354.23	6.720
354.44	8.930
354.64	6.063
354.85	8.177
355.06	6.066
355.26	5.349
355.47	6.656
355.68	6.861
355.88	7.165
356.09	7.043
356.30	4.379
356.51	6.833
356.71	5.959
356.92	5.932
357.13	6.240
357.33	6.295
357.54	5.104
357.75	4.537
357.95	5.399
358.16	6.017
358.37	8.343
358.57	5.614
358.78	6.411
358.99	7.269
359.19	5.772
359.40	7.070
359.61	5.459
359.81	8.027
360.02	6.721
360.23	5.634
360.43	5.890
360.64	5.941
360.85	5.215
361.05	5.483
361.26	6.723
361.47	5.338
361.67	5.968
361.88	4.931
362.09	6.119
362.29	4.090
362.50	4.433
362.70	4.457
362.91	6.051
363.12	4.604
363.32	4.048
363.53	5.419
363.74	5.559
363.94	4.672
364.15	5.573
364.36	6.754
364.56	4.992
364.77	5.847
364.98	6.609
365.18	6.140
365.39	6.492
365.59	5.082
365.80	5.148
366.01	6.883
366.21	6.297
366.42	4.789
366.63	6.730
366.83	6.919
367.04	4.228
367.24	7.288
367.45	4.461
367.66	5.124
367.86	5.353
368.07	6.409
368.28	4.905
368.48	6.291
368.69	5.041
368.89	6.273
369.10	6.568
369.31	6.464
369.51	6.334
369.72	7.407
369.92	8.336
370.13	6.372
370.34	7.021
370.54	5.095
370.75	6.708
370.95	5.899
371.16	6.323
371.37	4.843
371.57	5.489
371.78	6.251
371.98	6.288
372.19	6.733
372.40	6.043
372.60	6.369
372.81	6.180
373.01	5.048
373.22	5.574
373.43	6.839
373.63	6.672
373.84	6.802
374.04	6.041
374.25	6.524
374.46	6.886
374.66	6.767
374.87	7.904
375.07	5.709
375.28	6.060
375.48	7.506
375.69	8.198
375.90	5.206
376.10	4.262
376.31	5.828
376.51	5.346
376.72	5.003
376.92	5.624
377.13	6.551
377.34	6.942
377.54	5.775
377.75	7.184
377.95	5.723
378.16	6.761
378.36	6.678
378.57	6.757
378.77	6.723
378.98	6.290
379.19	6.587
379.39	6.165
379.60	6.856
379.80	7.429
380.01	7.358
380.21	6.847
380.42	7.540
380.62	7.208
380.83	7.876
381.04	6.012
381.24	7.635
381.45	6.909
381.65	6.979
381.86	7.147
382.06	8.263
382.27	6.527
382.47	7.593
382.68	8.375
382.88	6.983
383.09	6.658
383.29	8.249
383.50	9.145
383.71	7.736
383.91	8.610
384.12	7.527
384.32	9.468
384.53	8.538
384.73	7.663
384.94	7.655
385.14	7.533
385.35	7.773
385.55	9.289
385.76	8.117
385.96	8.894
386.17	9.218
386.37	9.469
386.58	9.839
386.78	10.597
386.99	8.803
387.19	11.552
387.40	9.304
387.60	11.596
387.81	10.436
388.01	10.002
388.22	10.767
388.42	12.223
388.63	11.156
388.83	12.997
389.04	10.823
389.24	12.009
389.45	12.065
389.65	11.637
389.86	12.138
390.06	11.880
390.27	11.146
390.47	13.127
390.68	11.937
390.88	14.332
391.09	13.827
391.29	14.146
391.50	13.825
391.70	14.024
391.91	13.393
392.11	14.668
392.32	14.532
392.52	15.639
392.73	15.153
392.93	16.107
393.14	15.136
393.34	15.783
393.55	16.086
393.75	15.596
393.95	15.113
394.16	16.774
394.36	16.828
394.57	16.988
394.77	16.753
394.98	17.989
395.18	17.302
395.39	17.899
395.59	16.901
395.80	17.705
396.00	17.788
396.21	18.717
396.41	17.261
396.61	19.533
396.82	18.647
397.02	19.537
397.23	18.812
397.43	19.517
397.64	17.853
397.84	20.263
398.05	18.450
398.25	20.083
398.45	18.946
398.66	20.548
398.86	19.290
399.07	20.971
399.27	18.984
399.48	19.984
399.68	19.958
399.89	19.444
400.09	21.101
400.29	20.239
400.50	20.255
400.70	20.899
400.91	20.198
401.11	20.889
401.32	20.702
401.52	20.867
401.72	20.104
401.93	22.256
402.13	21.109
402.34	21.716
402.54	20.483
402.75	22.551
402.95	20.887
403.15	21.569
403.36	20.176
403.56	22.059
403.77	20.688
403.97	20.696
404.17	20.239
404.38	21.386
404.58	20.902
404.79	21.697
404.99	21.218
405.19	21.943
405.40	20.921
405.60	21.714
405.81	20.688
406.01	22.326
406.21	21.307
406.42	21.692
406.62	21.144
406.83	22.693
407.03	22.653
407.23	22.028
407.44	21.855
407.64	22.177
407.85	21.542
408.05	22.000
408.25	21.248
408.46	22.106
408.66	22.950
408.87	21.846
409.07	21.962
409.27	20.614
409.48	21.304
409.68	21.494
409.88	20.463
410.09	21.519
410.29	21.534
410.50	22.745
410.70	21.432
410.90	21.564
411.11	20.190
411.31	21.360
411.51	21.445
411.72	21.818
411.92	21.110
412.12	21.774
412.33	20.875
412.53	21.182
412.74	21.304
412.94	21.684
413.14	20.820
413.35	21.403
413.55	20.734
413.75	21.959
413.96	21.163
414.16	21.432
414.36	20.226
414.57	21.163
414.77	20.363
414.97	21.276
415.18	20.403
415.38	20.631
415.58	20.596
415.79	20.168
415.99	20.047
416.19	20.312
416.40	20.188
416.60	20.822
416.80	20.994
417.01	20.539
417.21	19.797
417.41	20.432
417.62	20.191
417.82	20.335
418.02	20.196
418.23	20.394
418.43	19.644
418.63	20.107
418.84	19.882
419.04	20.268
419.24	20.000
419.45	20.030
419.65	20.334
419.85	20.052
420.06	19.888
420.26	19.748
420.46	19.932
420.67	20.533
420.87	19.640
421.07	19.577
421.28	20.115
421.48	19.705
421.68	19.767
421.88	19.773
422.09	19.592
422.29	20.160
422.49	19.682
422.70	19.609
422.90	20.005
423.10	19.509
423.31	20.526
423.51	20.234
423.71	19.740
423.91	19.407
424.12	19.683
424.32	19.702
424.52	19.718
424.73	19.443
424.93	19.404
425.13	19.364
425.33	19.149
425.54	19.467
425.74	19.636
425.94	19.643
426.15	19.733
426.35	19.780
426.55	19.764
426.75	20.332
426.96	19.692
427.16	20.032
427.36	20.274
427.57	20.261
427.77	19.707
427.97	20.113
428.17	19.913
428.38	20.073
428.58	19.382
428.78	20.019
428.98	19.547
429.19	19.818
429.39	19.584
429.59	20.063
429.79	19.385
430.00	19.465
430.20	18.667
430.40	19.186
430.60	18.681
430.81	19.746
431.01	19.053
431.21	19.942
431.41	19.173
431.62	19.553
431.82	19.529
432.02	19.520
432.22	18.762
432.43	19.389
432.63	19.229
432.83	19.476
433.03	19.259
433.24	19.334
433.44	18.959
433.64	19.205
433.84	19.158
434.05	19.248
434.25	19.506
434.45	19.867
434.65	19.287
434.85	19.642
435.06	19.556
435.26	19.938
435.46	19.925
435.66	20.282
435.87	19.331
436.07	19.413
436.27	19.916
436.47	19.944
436.67	19.422
436.88	20.073
437.08	20.044
437.28	20.164
437.48	19.704
437.69	19.857
437.89	19.533
438.09	19.566
438.29	19.518
438.49	19.954
438.70	20.008
438.90	19.503
439.10	19.595
439.30	19.496
439.50	19.243
439.71	19.886
439.91	19.618
440.11	19.834
440.31	19.391
440.51	19.627
440.72	18.993
440.92	19.406
441.12	19.649
441.32	19.709
441.52	19.891
441.72	19.845
441.93	19.672
442.13	20.184
442.33	19.904
442.53	19.980
442.73	20.111
442.94	19.998
443.14	20.274
443.34	20.804
443.54	19.974
443.74	20.309
443.94	19.560
444.15	19.569
444.35	19.850
444.55	19.689
444.75	20.230
444.95	20.015
445.15	19.304
445.36	19.696
445.56	19.296
445.76	19.579
445.96	19.117
446.16	19.271
446.36	19.304
446.57	19.792
446.77	19.103
446.97	19.645
447.17	19.438
447.37	19.601
447.57	19.651
447.77	19.759
447.98	19.827
448.18	19.992
448.38	20.057
448.58	20.255
448.78	20.404
448.98	20.449
449.18	20.628
449.39	20.382
449.59	20.512
449.79	20.291
449.99	20.676
450.19	20.595
450.39	20.304
450.59	19.890
450.79	20.553
451.00	20.803
451.20	21.157
451.40	20.703
451.60	20.442
451.80	20.047
452.00	20.309
452.20	20.080
452.40	20.301
452.61	20.095
452.81	20.332
453.01	20.071
453.21	20.087
453.41	20.449
453.61	20.559
453.81	19.987
454.01	20.365
454.21	20.406
454.42	20.012
454.62	20.295
454.82	20.597
455.02	20.383
455.22	20.196
455.42	20.574
455.62	20.982
455.82	20.248
456.02	20.299
456.23	20.420
456.43	20.110
456.63	20.526
456.83	20.251
457.03	20.137
457.23	20.187
457.43	20.397
457.63	19.929
457.83	20.538
458.03	19.625
458.23	19.690
458.43	19.913
458.64	19.899
458.84	19.253
459.04	19.553
459.24	19.453
459.44	19.401
459.64	19.141
459.84	19.164
460.04	19.125
460.24	19.413
460.44	19.529
460.64	19.324
460.84	19.415
461.04	19.709
461.24	19.644
461.45	20.301
461.65	19.598
461.85	20.203
462.05	20.052
462.25	20.232
462.45	20.232
462.65	20.528
462.85	20.161
463.05	20.387
463.25	20.638
463.45	20.530
463.65	19.652
463.85	20.091
464.05	20.523
464.25	19.769
464.45	19.961
464.65	19.685
464.85	19.842
465.05	19.682
465.26	19.407
465.46	20.007
465.66	19.744
465.86	20.217
466.06	19.366
466.26	19.899
466.46	19.809
466.66	19.886
466.86	19.309
467.06	19.645
467.26	19.438
467.46	19.711
467.66	19.181
467.86	19.678
468.06	19.548
468.26	19.767
468.46	20.205
468.66	20.381
468.86	19.834
469.06	19.725
469.26	19.482
