SpectraSuite Data File
++++++++++++++++++++++++++++++++++++
Date: Thu Sep 26 04:16:45 EST 2019
User: sgrac
Dark Spectrum Present: Yes
Reference Spectrum Present: Yes
Number of Sampled Component Spectra: 1
Spectrometers: USB4E01596
Integration Time (usec): 100000 (USB4E01596)
Spectra Averaged: 3 (USB4E01596)
Boxcar Smoothing: 0 (USB4E01596)
Correct for Electrical Dark: No (USB4E01596)
Strobe/Lamp Enabled: Yes (USB4E01596)
Correct for Detector Non-linearity: No (USB4E01596)
Correct for Stray Light: No (USB4E01596)
Number of Pixels in Processed Spectrum: 3648
>>>>>Begin Processed Spectral Data<<<<<
178.44	-1700.000
178.66	-1700.000
178.87	-1700.000
179.09	-353.061
179.30	-207.143
179.52	-1204.545
179.74	-594.444
179.95	-2392.308
180.17	327.711
180.38	2050.000
180.60	591.071
180.82	407.229
181.03	456.944
181.25	311.538
181.46	-1000.000
181.68	450.000
181.89	1513.333
182.11	-1338.889
182.33	335.922
182.54	402.299
182.76	451.786
182.97	1037.037
183.19	243.478
183.40	300.000
183.62	2437.500
183.84	326.087
184.05	2841.667
184.27	376.289
184.48	-647.222
184.70	2000.000
184.91	363.000
185.13	1733.333
185.34	835.135
185.56	2830.000
185.78	324.742
185.99	488.312
186.21	828.571
186.42	1320.000
186.64	1361.905
186.85	361.224
187.07	484.286
187.28	526.316
187.50	1234.783
187.72	1727.778
187.93	814.894
188.15	650.943
188.36	996.875
188.58	8433.333
188.79	785.000
189.01	6575.000
189.22	326.786
189.44	1454.167
189.65	3266.667
189.87	775.676
190.09	977.419
190.30	512.698
190.52	-28500.000
190.73	-24500.000
190.95	1279.167
191.16	311.009
191.38	267.391
191.59	976.471
191.81	467.241
192.02	900.000
192.24	457.534
192.45	378.947
192.67	659.574
192.88	538.462
193.10	291.860
193.31	320.225
193.53	1611.765
193.74	336.585
193.96	411.250
194.18	1405.263
194.39	265.217
194.61	2900.000
194.82	378.378
195.04	287.619
195.25	270.312
195.47	778.125
195.68	329.114
195.90	1255.000
196.11	273.000
196.33	1007.692
196.54	458.730
196.76	989.286
196.97	1168.182
197.19	972.222
197.40	-666.667
197.62	549.091
197.83	259.664
198.05	611.321
198.26	518.310
198.48	2450.000
198.69	0.000
198.91	3133.333
199.12	572.222
199.34	411.594
199.55	324.324
199.77	285.057
199.98	9366.667
200.20	428.788
200.41	274.766
200.63	1114.286
200.84	469.565
201.06	280.172
201.27	1433.333
201.49	1755.000
201.70	-1471.429
201.91	370.213
202.13	617.949
202.34	-518.750
202.56	566.667
202.77	2330.000
202.99	997.059
203.20	386.885
203.42	590.909
203.63	390.110
203.85	212.409
204.06	547.368
204.28	340.476
204.49	785.294
204.71	356.338
204.92	-15700.000
205.14	964.286
205.35	373.913
205.56	1020.833
205.78	566.102
205.99	596.226
206.21	287.963
206.42	288.636
206.64	953.125
206.85	289.286
207.07	236.000
207.28	302.564
207.50	506.061
207.71	976.190
207.93	-741.667
208.14	-2254.545
208.35	984.000
208.57	277.778
208.78	532.000
209.00	910.526
209.21	7300.000
209.43	315.385
209.64	884.375
209.86	4020.000
210.07	641.463
210.28	-418.421
210.50	8166.667
210.71	526.667
210.93	272.414
211.14	469.231
211.36	1326.316
211.57	651.786
211.78	1604.762
212.00	1062.500
212.21	465.517
212.43	735.714
212.64	280.583
212.86	484.615
213.07	288.596
213.29	1886.667
213.50	415.190
213.71	237.903
213.93	609.091
214.14	268.269
214.36	197.059
214.57	589.362
214.78	276.829
215.00	416.471
215.21	318.519
215.43	922.222
215.64	341.304
215.86	194.964
216.07	1112.000
216.28	440.506
216.50	293.396
216.71	358.537
216.93	726.190
217.14	2327.273
217.35	682.857
217.57	343.548
217.78	282.301
218.00	339.362
218.21	232.237
218.42	697.674
218.64	314.851
218.85	275.893
219.07	308.000
219.28	668.571
219.49	594.737
219.71	538.000
219.92	-2690.000
220.14	470.312
220.35	908.333
220.56	-12700.000
220.78	207.937
220.99	732.500
221.21	293.976
221.42	405.128
221.63	378.723
221.85	0.000
222.06	225.472
222.28	648.571
222.49	416.667
222.70	1257.143
222.92	382.051
223.13	200.000
223.34	297.826
223.56	204.348
223.77	208.917
223.99	180.124
224.20	196.154
224.41	380.851
224.63	189.796
224.84	236.036
225.05	209.160
225.27	169.942
225.48	257.018
225.69	173.626
225.91	212.174
226.12	174.026
226.34	156.471
226.55	177.941
226.76	140.097
226.98	125.000
227.19	134.078
227.40	166.667
227.62	93.657
227.83	158.635
228.04	102.500
228.26	80.307
228.47	72.304
228.69	67.447
228.90	44.766
229.11	37.074
229.33	48.148
229.54	36.483
229.75	39.021
229.97	37.561
230.18	35.084
230.39	36.689
230.61	39.267
230.82	35.150
231.03	33.257
231.25	41.336
231.46	41.843
231.67	48.354
231.89	42.447
232.10	37.343
232.31	54.861
232.53	50.215
232.74	48.048
232.95	52.196
233.17	44.193
233.38	55.197
233.59	62.700
233.81	61.204
234.02	50.102
234.23	45.291
234.45	57.662
234.66	40.840
234.87	59.246
235.09	50.262
235.30	39.130
235.51	37.660
235.73	37.105
235.94	45.969
236.15	47.405
236.36	45.904
236.58	49.849
236.79	45.872
237.00	42.589
237.22	49.231
237.43	50.933
237.64	59.774
237.86	37.500
238.07	49.071
238.28	46.207
238.50	44.459
238.71	49.359
238.92	52.147
239.13	45.030
239.35	50.998
239.56	48.701
239.77	37.358
239.99	43.075
240.20	51.507
240.41	35.550
240.63	38.919
240.84	40.788
241.05	28.511
241.26	31.845
241.48	35.755
241.69	19.947
241.90	19.558
242.12	30.962
242.33	25.986
242.54	12.576
242.75	16.601
242.97	21.096
243.18	14.158
243.39	12.739
243.61	18.240
243.82	15.474
244.03	15.916
244.24	13.028
244.46	14.149
244.67	17.074
244.88	18.471
245.09	12.454
245.31	16.694
245.52	20.668
245.73	17.277
245.95	28.946
246.16	21.706
246.37	15.792
246.58	17.479
246.80	18.151
247.01	15.816
247.22	14.403
247.43	12.711
247.65	13.153
247.86	11.086
248.07	9.547
248.28	9.567
248.50	9.608
248.71	8.617
248.92	7.705
249.13	7.247
249.35	8.885
249.56	9.173
249.77	9.006
249.98	9.310
250.20	11.004
250.41	13.521
250.62	16.647
250.83	13.367
251.05	20.928
251.26	14.688
251.47	20.121
251.68	20.430
251.90	18.723
252.11	16.133
252.32	16.559
252.53	20.064
252.75	15.192
252.96	15.934
253.17	14.512
253.38	15.578
253.59	18.686
253.81	15.259
254.02	14.614
254.23	11.095
254.44	14.919
254.66	19.233
254.87	13.401
255.08	18.621
255.29	17.846
255.50	13.590
255.72	22.462
255.93	20.402
256.14	25.404
256.35	23.222
256.57	22.754
256.78	19.537
256.99	24.677
257.20	20.592
257.41	20.080
257.63	17.523
257.84	21.387
258.05	25.566
258.26	11.912
258.47	15.820
258.69	14.741
258.90	12.607
259.11	14.074
259.32	11.681
259.53	11.074
259.75	10.017
259.96	8.297
260.17	5.810
260.38	8.467
260.59	6.702
260.81	7.047
261.02	7.476
261.23	7.087
261.44	7.036
261.65	7.408
261.87	7.711
262.08	7.732
262.29	9.865
262.50	6.401
262.71	8.191
262.92	9.336
263.14	9.927
263.35	9.547
263.56	10.173
263.77	11.306
263.98	10.056
264.20	14.330
264.41	12.184
264.62	12.505
264.83	11.730
265.04	18.198
265.25	16.572
265.47	12.285
265.68	15.734
265.89	14.655
266.10	13.118
266.31	17.403
266.52	9.482
266.74	12.983
266.95	8.503
267.16	13.321
267.37	12.884
267.58	11.803
267.79	10.725
268.01	10.773
268.22	10.776
268.43	9.580
268.64	12.261
268.85	11.578
269.06	9.941
269.27	10.520
269.49	6.559
269.70	10.984
269.91	9.097
270.12	8.131
270.33	11.662
270.54	12.426
270.75	8.596
270.97	10.763
271.18	7.436
271.39	8.794
271.60	12.210
271.81	10.750
272.02	6.548
272.23	10.174
272.45	7.434
272.66	4.914
272.87	8.609
273.08	6.891
273.29	7.068
273.50	7.277
273.71	8.397
273.92	7.422
274.14	8.909
274.35	7.283
274.56	9.421
274.77	7.903
274.98	9.690
275.19	6.691
275.40	9.616
275.61	9.199
275.83	9.243
276.04	7.151
276.25	12.631
276.46	7.604
276.67	10.779
276.88	10.441
277.09	9.973
277.30	11.568
277.51	8.705
277.73	9.709
277.94	9.012
278.15	9.754
278.36	9.286
278.57	9.810
278.78	10.012
278.99	10.320
279.20	11.328
279.41	10.967
279.62	9.765
279.84	9.026
280.05	8.301
280.26	8.148
280.47	10.975
280.68	8.735
280.89	8.946
281.10	9.396
281.31	7.646
281.52	7.463
281.73	7.918
281.94	8.279
282.16	9.053
282.37	8.999
282.58	9.601
282.79	10.064
283.00	9.182
283.21	5.286
283.42	6.305
283.63	6.935
283.84	7.181
284.05	7.837
284.26	8.059
284.47	8.824
284.68	7.905
284.89	8.137
285.11	6.713
285.32	8.578
285.53	8.476
285.74	5.442
285.95	6.331
286.16	6.031
286.37	7.892
286.58	6.252
286.79	5.380
287.00	6.323
287.21	6.583
287.42	6.499
287.63	6.828
287.84	6.678
288.05	6.951
288.26	6.316
288.48	6.642
288.69	6.000
288.90	7.580
289.11	7.646
289.32	8.640
289.53	7.991
289.74	5.653
289.95	8.056
290.16	7.966
290.37	6.876
290.58	6.066
290.79	5.057
291.00	5.955
291.21	7.082
291.42	5.737
291.63	6.535
291.84	7.572
292.05	6.443
292.26	5.860
292.47	5.850
292.68	6.287
292.89	6.664
293.10	7.903
293.31	7.488
293.52	6.852
293.73	6.603
293.94	6.548
294.15	8.193
294.36	8.285
294.57	7.757
294.79	7.856
295.00	5.235
295.21	8.527
295.42	5.479
295.63	6.766
295.84	8.430
296.05	6.236
296.26	5.905
296.47	7.087
296.68	5.234
296.89	6.441
297.10	6.627
297.31	5.387
297.52	5.612
297.73	5.569
297.94	5.503
298.15	4.467
298.36	4.100
298.57	5.653
298.78	5.829
298.99	5.277
299.20	4.625
299.41	5.388
299.62	5.729
299.83	5.704
300.04	5.281
300.25	5.883
300.46	4.802
300.67	6.133
300.88	7.877
301.09	5.378
301.30	5.853
301.50	7.204
301.71	8.243
301.92	7.722
302.13	7.107
302.34	4.825
302.55	7.221
302.76	5.812
302.97	6.745
303.18	6.682
303.39	6.227
303.60	7.228
303.81	5.661
304.02	5.434
304.23	6.226
304.44	6.370
304.65	6.356
304.86	7.684
305.07	3.991
305.28	7.777
305.49	6.625
305.70	7.749
305.91	5.286
306.12	5.164
306.33	4.658
306.54	6.965
306.75	7.910
306.96	8.480
307.17	7.292
307.38	6.471
307.58	5.783
307.79	8.659
308.00	7.596
308.21	9.849
308.42	6.153
308.63	6.044
308.84	6.886
309.05	7.177
309.26	5.584
309.47	6.256
309.68	6.629
309.89	7.570
310.10	5.871
310.31	6.347
310.52	5.738
310.73	6.347
310.94	6.000
311.14	6.471
311.35	5.596
311.56	7.704
311.77	4.785
311.98	4.149
312.19	5.054
312.40	5.991
312.61	4.932
312.82	5.270
313.03	5.176
313.24	7.201
313.45	6.649
313.66	6.064
313.86	6.547
314.07	5.026
314.28	7.006
314.49	6.713
314.70	5.888
314.91	7.998
315.12	6.773
315.33	8.140
315.54	6.560
315.75	6.113
315.96	6.196
316.16	5.813
316.37	7.153
316.58	6.451
316.79	6.074
317.00	6.290
317.21	7.083
317.42	8.926
317.63	6.726
317.84	6.197
318.05	6.529
318.25	6.688
318.46	5.130
318.67	7.258
318.88	6.263
319.09	6.129
319.30	5.682
319.51	8.193
319.72	8.420
319.93	6.389
320.13	5.766
320.34	8.282
320.55	7.761
320.76	6.580
320.97	6.048
321.18	6.484
321.39	6.709
321.60	6.045
321.80	9.191
322.01	8.531
322.22	6.816
322.43	6.034
322.64	6.982
322.85	8.614
323.06	7.314
323.27	7.072
323.47	6.732
323.68	7.877
323.89	5.473
324.10	8.912
324.31	6.642
324.52	8.898
324.73	5.787
324.93	5.582
325.14	6.103
325.35	5.856
325.56	6.066
325.77	4.849
325.98	6.436
326.19	4.932
326.39	6.612
326.60	7.041
326.81	6.337
327.02	5.357
327.23	5.037
327.44	6.383
327.64	5.061
327.85	5.470
328.06	5.957
328.27	7.915
328.48	6.759
328.69	5.676
328.90	7.075
329.10	5.967
329.31	6.754
329.52	5.527
329.73	7.767
329.94	7.493
330.15	7.622
330.35	8.248
330.56	8.017
330.77	6.425
330.98	7.894
331.19	7.173
331.39	9.195
331.60	7.147
331.81	5.421
332.02	6.928
332.23	7.324
332.44	7.306
332.64	6.698
332.85	6.381
333.06	6.596
333.27	8.082
333.48	6.145
333.68	7.189
333.89	5.932
334.10	5.562
334.31	7.808
334.52	7.260
334.72	6.255
334.93	6.629
335.14	5.090
335.35	6.577
335.56	7.326
335.76	5.871
335.97	7.931
336.18	5.426
336.39	7.758
336.60	7.864
336.80	5.670
337.01	7.077
337.22	6.895
337.43	7.746
337.64	8.206
337.84	7.052
338.05	6.801
338.26	9.263
338.47	8.293
338.68	5.612
338.88	7.065
339.09	6.105
339.30	8.784
339.51	5.675
339.71	8.292
339.92	7.835
340.13	6.802
340.34	5.557
340.55	7.544
340.75	9.483
340.96	7.293
341.17	9.218
341.38	6.864
341.58	7.294
341.79	7.423
342.00	7.524
342.21	8.433
342.41	7.220
342.62	8.346
342.83	9.647
343.04	7.342
343.24	9.584
343.45	8.047
343.66	6.969
343.87	9.219
344.07	8.050
344.28	8.913
344.49	10.055
344.70	9.798
344.90	7.414
345.11	7.347
345.32	7.388
345.53	8.751
345.73	9.488
345.94	9.417
346.15	9.078
346.36	8.989
346.56	10.097
346.77	10.804
346.98	8.967
347.19	10.644
347.39	9.911
347.60	9.142
347.81	10.539
348.02	10.721
348.22	7.588
348.43	8.429
348.64	8.314
348.84	9.483
349.05	9.342
349.26	11.078
349.47	9.257
349.67	8.172
349.88	9.634
350.09	10.154
350.30	11.953
350.50	9.397
350.71	10.618
350.92	9.987
351.12	8.668
351.33	11.163
351.54	9.079
351.74	10.393
351.95	8.260
352.16	9.874
352.37	12.025
352.57	9.822
352.78	10.192
352.99	10.443
353.19	9.776
353.40	9.567
353.61	11.334
353.82	10.091
354.02	9.746
354.23	10.386
354.44	10.819
354.64	9.974
354.85	10.957
355.06	10.062
355.26	8.022
355.47	10.684
355.68	12.460
355.88	11.618
356.09	10.867
356.30	9.721
356.51	10.427
356.71	9.981
356.92	7.527
357.13	10.579
357.33	11.866
357.54	9.501
357.75	7.749
357.95	9.848
358.16	9.239
358.37	11.223
358.57	7.338
358.78	12.328
358.99	8.567
359.19	10.565
359.40	11.061
359.61	10.000
359.81	10.750
360.02	12.000
360.23	9.964
360.43	10.154
360.64	9.809
360.85	9.873
361.05	7.929
361.26	10.615
361.47	10.063
361.67	10.678
361.88	7.890
362.09	9.972
362.29	7.958
362.50	8.836
362.70	8.330
362.91	10.446
363.12	9.058
363.32	9.579
363.53	9.488
363.74	9.947
363.94	8.081
364.15	10.568
364.36	10.787
364.56	8.455
364.77	9.729
364.98	11.891
365.18	9.343
365.39	11.165
365.59	8.811
365.80	9.613
366.01	10.652
366.21	9.177
366.42	8.047
366.63	10.223
366.83	9.076
367.04	7.542
367.24	10.003
367.45	8.296
367.66	7.814
367.86	10.121
368.07	9.196
368.28	9.231
368.48	7.903
368.69	6.928
368.89	8.996
369.10	9.840
369.31	9.718
369.51	9.722
369.72	9.835
369.92	10.400
370.13	7.398
370.34	10.352
370.54	8.741
370.75	9.480
370.95	7.200
371.16	9.924
371.37	8.296
371.57	9.430
371.78	9.201
371.98	9.264
372.19	9.723
372.40	9.786
372.60	9.703
372.81	8.827
373.01	7.680
373.22	8.270
373.43	9.341
373.63	9.325
373.84	10.183
374.04	9.777
374.25	8.501
374.46	9.780
374.66	9.627
374.87	10.039
375.07	7.254
375.28	8.024
375.48	9.748
375.69	10.100
375.90	7.876
376.10	7.795
376.31	8.667
376.51	7.289
376.72	8.184
376.92	8.360
377.13	9.212
377.34	9.758
377.54	8.633
377.75	10.578
377.95	9.078
378.16	9.836
378.36	9.568
378.57	11.170
378.77	9.560
378.98	9.995
379.19	8.696
379.39	9.103
379.60	9.430
379.80	9.866
380.01	10.536
380.21	10.019
380.42	10.145
380.62	9.890
380.83	10.160
381.04	9.431
381.24	9.455
381.45	9.994
381.65	9.063
381.86	9.977
382.06	11.677
382.27	9.108
382.47	9.150
382.68	11.593
382.88	8.900
383.09	8.960
383.29	8.941
383.50	10.784
383.71	9.545
383.91	9.491
384.12	9.781
384.32	10.320
384.53	10.571
384.73	9.712
384.94	8.777
385.14	10.020
385.35	9.269
385.55	10.839
385.76	9.855
385.96	10.426
386.17	9.850
386.37	11.178
386.58	9.884
386.78	12.401
386.99	10.069
387.19	11.305
387.40	9.638
387.60	12.667
387.81	10.805
388.01	11.271
388.22	12.012
388.42	12.273
388.63	12.451
388.83	13.083
389.04	10.189
389.24	11.596
389.45	11.563
389.65	11.796
389.86	11.733
390.06	10.852
390.27	10.502
390.47	12.348
390.68	11.716
390.88	13.258
391.09	13.038
391.29	12.735
391.50	11.541
391.70	13.376
391.91	11.702
392.11	12.510
392.32	13.104
392.52	13.964
392.73	12.110
392.93	13.209
393.14	13.353
393.34	13.082
393.55	13.326
393.75	13.234
393.95	12.840
394.16	13.599
394.36	13.806
394.57	14.418
394.77	13.582
394.98	14.124
395.18	14.131
395.39	14.138
395.59	14.151
395.80	14.821
396.00	13.614
396.21	15.570
396.41	13.513
396.61	15.086
396.82	14.279
397.02	15.380
397.23	14.817
397.43	15.052
397.64	12.872
397.84	15.543
398.05	12.680
398.25	15.890
398.45	14.116
398.66	15.358
398.86	14.432
399.07	15.746
399.27	14.688
399.48	15.954
399.68	14.412
399.89	14.546
400.09	15.877
400.29	14.392
400.50	14.245
400.70	15.495
400.91	13.694
401.11	14.614
401.32	14.784
401.52	14.875
401.72	14.298
401.93	15.760
402.13	15.172
402.34	14.555
402.54	15.011
402.75	16.327
402.95	14.133
403.15	16.289
403.36	14.014
403.56	15.647
403.77	14.035
403.97	15.100
404.17	14.329
404.38	15.400
404.58	14.547
404.79	15.828
404.99	15.643
405.19	14.806
405.40	14.557
405.60	15.776
405.81	15.330
406.01	14.983
406.21	15.162
406.42	16.000
406.62	15.747
406.83	15.842
407.03	15.006
407.23	15.485
407.44	14.258
407.64	15.003
407.85	14.768
408.05	15.906
408.25	14.393
408.46	15.668
408.66	15.054
408.87	15.228
409.07	15.005
409.27	15.103
409.48	15.031
409.68	16.465
409.88	13.457
410.09	15.359
410.29	14.807
410.50	15.774
410.70	13.915
410.90	15.709
411.11	14.783
411.31	15.435
411.51	15.368
411.72	16.438
411.92	14.362
412.12	14.939
412.33	14.070
412.53	14.132
412.74	14.256
412.94	14.752
413.14	15.036
413.35	15.112
413.55	15.096
413.75	14.981
413.96	14.188
414.16	14.377
414.36	15.077
414.57	15.022
414.77	13.860
414.97	15.616
415.18	13.673
415.38	15.447
415.58	15.042
415.79	14.820
415.99	14.269
416.19	14.544
416.40	14.240
416.60	15.374
416.80	14.796
417.01	14.559
417.21	14.500
417.41	15.052
417.62	15.559
417.82	14.870
418.02	13.996
418.23	14.776
418.43	14.518
418.63	14.451
418.84	15.118
419.04	14.404
419.24	15.239
419.45	14.453
419.65	14.975
419.85	14.915
420.06	14.830
420.26	14.694
420.46	14.972
420.67	14.745
420.87	14.590
421.07	15.143
421.28	14.466
421.48	14.399
421.68	14.903
421.88	14.834
422.09	14.014
422.29	14.562
422.49	14.462
422.70	14.733
422.90	14.428
423.10	14.318
423.31	14.648
423.51	14.809
423.71	14.226
423.91	14.783
424.12	14.130
424.32	14.690
424.52	14.269
424.73	14.281
424.93	14.448
425.13	14.393
425.33	14.135
425.54	14.593
425.74	14.743
425.94	14.319
426.15	14.538
426.35	14.559
426.55	14.244
426.75	14.764
426.96	14.363
427.16	14.738
427.36	14.585
427.57	15.250
427.77	14.507
427.97	15.237
428.17	14.498
428.38	14.686
428.58	14.123
428.78	15.211
428.98	13.984
429.19	14.634
429.39	13.554
429.59	14.784
429.79	13.565
430.00	14.438
430.20	14.125
430.40	13.783
430.60	14.216
430.81	14.854
431.01	14.242
431.21	14.661
431.41	13.677
431.62	14.636
431.82	14.381
432.02	14.943
432.22	14.166
432.43	14.529
432.63	14.060
432.83	14.455
433.03	14.688
433.24	14.516
433.44	14.221
433.64	14.733
433.84	14.657
434.05	14.584
434.25	14.789
434.45	15.237
434.65	14.887
434.85	15.564
435.06	14.985
435.26	15.226
435.46	15.247
435.66	15.659
435.87	15.355
436.07	15.622
436.27	15.522
436.47	15.678
436.67	15.079
436.88	15.327
437.08	15.065
437.28	15.467
437.48	14.786
437.69	15.510
437.89	15.461
438.09	15.237
438.29	15.087
438.49	16.301
438.70	15.819
438.90	15.538
439.10	14.935
439.30	15.672
439.50	15.148
439.71	15.399
439.91	15.566
440.11	15.742
440.31	14.769
440.51	15.109
440.72	15.791
440.92	15.455
441.12	15.689
441.32	15.482
441.52	15.904
441.72	15.982
441.93	15.905
442.13	15.565
442.33	15.472
442.53	15.724
442.73	15.632
442.94	16.048
443.14	16.398
443.34	16.030
443.54	16.178
443.74	16.308
443.94	15.927
444.15	16.059
444.35	15.856
444.55	15.953
444.75	15.829
444.95	15.667
445.15	15.479
445.36	15.857
445.56	15.323
445.76	15.549
445.96	15.547
446.16	15.484
446.36	15.313
446.57	15.482
446.77	15.483
446.97	15.666
447.17	15.673
447.37	15.582
447.57	15.999
447.77	15.628
447.98	15.636
448.18	15.482
448.38	15.967
448.58	15.798
448.78	16.353
448.98	15.779
449.18	16.384
449.39	15.838
449.59	16.532
449.79	15.890
449.99	16.166
450.19	16.256
450.39	16.117
450.59	16.120
450.79	15.866
451.00	16.349
451.20	16.810
451.40	16.285
451.60	16.046
451.80	16.542
452.00	16.162
452.20	16.067
452.40	15.372
452.61	16.032
452.81	15.647
453.01	15.913
453.21	15.736
453.41	15.735
453.61	15.877
453.81	15.724
454.01	15.613
454.21	16.030
454.42	16.298
454.62	15.684
454.82	15.548
455.02	15.624
455.22	15.767
455.42	15.941
455.62	15.225
455.82	16.095
456.02	15.453
456.23	15.763
456.43	15.641
456.63	15.587
456.83	15.608
457.03	15.591
457.23	15.521
457.43	15.636
457.63	15.849
457.83	15.913
458.03	15.355
458.23	15.133
458.43	14.922
458.64	15.711
458.84	15.268
459.04	14.942
459.24	15.327
459.44	15.180
459.64	15.190
459.84	14.593
460.04	14.637
460.24	14.943
460.44	14.878
460.64	14.907
460.84	14.857
461.04	15.180
461.24	15.228
461.45	14.945
461.65	14.902
461.85	15.092
462.05	15.210
462.25	15.221
462.45	15.268
462.65	15.433
462.85	14.766
463.05	15.217
463.25	14.806
463.45	15.427
463.65	15.062
463.85	15.225
464.05	14.994
464.25	15.164
464.45	14.953
464.65	15.094
464.85	15.128
465.05	14.875
465.26	15.300
465.46	15.330
465.66	15.260
465.86	15.834
466.06	15.265
466.26	15.420
466.46	14.535
466.66	15.024
466.86	14.861
467.06	14.942
467.26	14.457
467.46	15.264
467.66	14.854
467.86	14.459
468.06	14.769
468.26	15.190
468.46	15.006
468.66	15.579
468.86	15.001
469.06	15.564
469.26	15.241
469.46	15.333
469.66	15.321
